time (s)	coil I (A)	last det (V)	int current (uC)
1788.422356	1.086570	0.588232	485.696686
1788.423289	0.601216	0.588232	1046.630981
1788.424190	0.091849	0.588232	1129.387207
1788.425123	0.089648	0.588232	1213.029175
1788.426031	0.089696	0.588232	1294.473145
1788.426922	0.089597	0.588232	1374.304199
1788.427812	0.089681	0.588232	1454.120605
1788.428760	0.089821	0.588232	1539.270508
1788.429652	0.089652	0.588232	1619.240234
1788.430558	0.089634	0.588232	1700.448486
1788.431450	0.089718	0.588232	1780.476929
1788.432394	0.089733	0.588232	1865.184570
1789.423367	1.142750	0.596237	562.233154
1789.424281	0.553176	0.596237	1067.836182
1789.425167	0.091578	0.596237	1148.974609
1789.426122	0.089736	0.596237	1234.672852
1789.427017	0.089659	0.596237	1314.918091
1789.427904	0.089718	0.596237	1394.497925
1789.428831	0.089630	0.596237	1477.585083
1789.429743	0.089586	0.596237	1559.287720
1789.430649	0.089703	0.596237	1640.558960
1789.431543	0.089681	0.596237	1720.734131
1789.432500	0.089758	0.596237	1806.632812
1789.433409	0.089612	0.596237	1888.089966
1790.459620	1.089591	0.587890	499.032684
1790.460520	0.626700	0.587890	1063.062988
1790.461406	0.092538	0.587890	1145.051514
1790.462347	0.089630	0.587890	1229.393433
1790.463265	0.089619	0.587890	1311.663818
1790.464172	0.089656	0.587890	1392.981567
1790.465063	0.089652	0.587890	1472.861572
1790.466004	0.089689	0.587890	1557.258667
1790.466909	0.089648	0.587890	1638.390503
1790.467798	0.089670	0.587890	1718.107544
1790.468738	0.089725	0.587890	1802.449341
1790.469643	0.089648	0.587890	1883.581177
1791.457484	1.069043	0.594955	469.309906
1791.458439	0.574219	0.594955	1017.688843
1791.459352	0.091410	0.594955	1101.146118
1791.460255	0.089656	0.594955	1182.105225
1791.461144	0.089663	0.594955	1261.815674
1791.462088	0.089751	0.594955	1346.540649
1791.462993	0.089645	0.594955	1427.669189
1791.463888	0.089674	0.594955	1507.927490
1791.464829	0.089718	0.594955	1592.352173
1791.465732	0.089747	0.594955	1673.394043
1791.466625	0.089681	0.594955	1753.479492
1791.467515	0.089692	0.594955	1833.305664
1792.491869	1.092198	0.593421	492.581512
1792.492791	0.612144	0.593421	1056.977905
1792.493690	0.091941	0.593421	1139.632812
1792.494617	0.089572	0.593421	1222.665649
1792.495521	0.089755	0.593421	1303.803833
1792.496425	0.089652	0.593421	1384.849365
1792.497319	0.089718	0.593421	1465.057251
1792.498258	0.089678	0.593421	1549.264648
1792.499157	0.089619	0.593421	1629.832275
1792.500058	0.089612	0.593421	1710.572510
1792.500951	0.089630	0.593421	1790.612183
1792.501902	0.089692	0.593421	1875.909668
1793.490884	1.072203	0.610755	466.408478
1793.491867	0.534818	0.610755	992.134644
1793.492771	0.091165	0.610755	1074.547363
1793.493664	0.089626	0.610755	1154.583740
1793.494612	0.089747	0.610755	1239.664185
1793.495508	0.089744	0.610755	1320.074463
1793.496400	0.089689	0.610755	1400.076782
1793.497289	0.089722	0.610755	1479.839355
1793.498219	0.089707	0.610755	1563.266846
1793.499123	0.089626	0.610755	1644.289185
1793.500026	0.089656	0.610755	1725.248291
1793.500917	0.089681	0.610755	1805.154419
1794.523104	1.081289	0.594335	489.823944
1794.523999	0.639324	0.594335	1062.018677
1794.524941	0.092618	0.594335	1149.265259
1794.525836	0.089678	0.594335	1229.526855
1794.526737	0.089685	0.594335	1310.333130
1794.527656	0.089674	0.594335	1392.743652
1794.528579	0.089784	0.594335	1475.614258
1794.529485	0.089692	0.594335	1556.875610
1794.530383	0.089685	0.594335	1637.412842
1794.531324	0.089758	0.594335	1721.875366
1794.532224	0.089711	0.594335	1802.614990
1794.533124	0.089619	0.594335	1883.272217
1795.527506	1.084863	0.605844	480.594452
1795.528472	0.551173	0.605844	1013.027710
1795.529379	0.091373	0.605844	1095.903320
1795.530274	0.089561	0.605844	1176.060059
1795.531163	0.089601	0.605844	1255.715210
1795.532089	0.089659	0.605844	1338.739868
1795.532999	0.089648	0.605844	1420.319946
1795.533915	0.089667	0.605844	1502.454712
1795.534807	0.089641	0.605844	1582.414551
1795.535758	0.089722	0.605844	1667.739868
1795.536664	0.089681	0.605844	1748.991211
1795.537556	0.089678	0.605844	1828.983765
1796.558292	1.080721	0.591302	479.840302
1796.559219	0.616996	0.591302	1051.795532
1796.560121	0.091915	0.591302	1134.703125
1796.561010	0.089509	0.591302	1214.276855
1796.561964	0.089612	0.591302	1299.766479
1796.562882	0.089619	0.591302	1382.036865
1796.563801	0.089641	0.591302	1464.416992
1796.564688	0.089703	0.591302	1543.983887
1796.565628	0.089722	0.591302	1628.322266
1796.566531	0.089645	0.591302	1709.271484
1796.567422	0.089663	0.591302	1789.161255
1796.568349	0.089707	0.591302	1872.319702
1797.567352	1.091898	0.588631	528.478699
1797.568280	0.551755	0.588631	1040.507690
1797.569193	0.091271	0.588631	1123.837891
1797.570083	0.089663	0.588631	1203.638062
1797.571025	0.089762	0.588631	1288.193848
1797.571919	0.089685	0.588631	1368.372314
1797.572825	0.089689	0.588631	1449.630249
1797.573719	0.089762	0.588631	1529.877441
1797.574657	0.089766	0.588631	1614.077637
1797.575570	0.089692	0.588631	1695.966797
1797.576471	0.089689	0.588631	1776.776367
1797.577392	0.089736	0.588631	1859.423584
1798.593353	1.064205	0.588941	459.736694
1798.594319	0.568832	0.588941	1009.228210
1798.595229	0.091388	0.588941	1092.391235
1798.596135	0.089590	0.588941	1173.559570
1798.597024	0.089674	0.588941	1253.279785
1798.597984	0.089758	0.588941	1339.447754
1798.598892	0.089623	0.588941	1420.825195
1798.599788	0.089637	0.588941	1501.140381
1798.600713	0.089659	0.588941	1584.075317
1798.601613	0.089740	0.588941	1664.841309
1798.602509	0.089623	0.588941	1745.143311
1798.603395	0.089681	0.588941	1824.601074
1799.603658	1.081168	0.579205	473.551666
1799.604619	0.565627	0.579205	1017.119629
1799.605535	0.091326	0.579205	1100.773926
1799.606436	0.089593	0.579205	1181.497681
1799.607372	0.089729	0.579205	1265.484009
1799.608283	0.089744	0.579205	1347.240479
1799.609188	0.089652	0.579205	1428.375610
1799.610075	0.089663	0.579205	1507.906738
1799.611019	0.089703	0.579205	1592.586670
1799.611920	0.089645	0.579205	1673.356567
1799.612821	0.089641	0.579205	1754.123169
1799.613708	0.089751	0.579205	1833.732300
1800.627208	1.103152	0.593896	555.988525
1800.628127	0.533544	0.593896	1046.315186
1800.629021	0.091143	0.593896	1127.796631
1800.629918	0.089619	0.593896	1208.185059
1800.630854	0.089747	0.593896	1292.188599
1800.631757	0.089736	0.593896	1373.220459
1800.632662	0.089685	0.593896	1454.385498
1800.633549	0.089641	0.593896	1533.897217
1800.634503	0.089758	0.593896	1619.526611
1800.635409	0.089681	0.593896	1700.777954
1800.636298	0.089659	0.593896	1780.485229
1800.637238	0.089663	0.593896	1864.768555
1801.637239	1.116057	0.576466	539.055542
1801.638169	0.540670	0.576466	1041.878784
1801.639069	0.091208	0.576466	1123.966431
1801.639958	0.089469	0.576466	1203.504395
1801.640902	0.089634	0.576466	1288.118652
1801.641808	0.089641	0.576466	1369.333496
1801.642709	0.089619	0.576466	1450.080322
1801.643634	0.089604	0.576466	1532.964478
1801.644543	0.089663	0.576466	1614.468262
1801.645450	0.089615	0.576466	1695.749512
1801.646340	0.089597	0.576466	1775.490967
1801.647281	0.089593	0.576466	1859.798462
1802.659272	1.062920	0.593751	461.307220
1802.660211	0.643542	0.593751	1065.593628
1802.661119	0.091798	0.593751	1148.946289
1802.662034	0.089531	0.593751	1230.867432
1802.662929	0.089652	0.593751	1311.106079
1802.663863	0.089663	0.593751	1394.851440
1802.664760	0.089590	0.593751	1475.213501
1802.665664	0.089615	0.593751	1556.225830
1802.666555	0.089612	0.593751	1636.069946
1802.667504	0.089707	0.593751	1721.201904
1802.668410	0.089542	0.593751	1802.327148
1802.669310	0.089593	0.593751	1882.961304
1803.669456	1.080875	0.583523	480.989502
1803.670352	0.631674	0.583523	1046.968994
1803.671321	0.091234	0.583523	1135.374878
1803.672219	0.089524	0.583523	1215.767334
1803.673104	0.089601	0.583523	1295.064087
1803.674059	0.089652	0.583523	1380.681885
1803.674959	0.089626	0.583523	1461.345703
1803.675857	0.089626	0.583523	1541.830322
1803.676783	0.089663	0.583523	1624.858398
1803.677691	0.089667	0.583523	1706.275757
1803.678601	0.089590	0.583523	1787.802490
1803.679499	0.089637	0.583523	1868.296875
1804.695256	1.080384	0.588216	479.690704
1804.696151	0.645959	0.588216	1057.824463
1804.697104	0.091494	0.588216	1145.018311
1804.698020	0.089645	0.588216	1227.132935
1804.698932	0.089575	0.588216	1308.825562
1804.699824	0.089601	0.588216	1388.749512
1804.700775	0.089619	0.588216	1473.977295
1804.701686	0.089524	0.588216	1555.533569
1804.702579	0.089568	0.588216	1635.517700
1804.703515	0.089711	0.588216	1719.486938
1804.704419	0.089612	0.588216	1800.495972
1804.705323	0.089586	0.588216	1881.481934
1805.703628	1.071046	0.589006	471.260284
1805.704590	0.559482	0.589006	1009.482300
1805.705502	0.091183	0.589006	1092.641113
1805.706419	0.089656	0.589006	1174.855469
1805.707308	0.089634	0.589006	1254.539917
1805.708270	0.089593	0.589006	1340.728882
1805.709171	0.089623	0.589006	1421.479004
1805.710060	0.089652	0.589006	1501.179687
1805.710991	0.089670	0.589006	1584.662842
1805.711893	0.089604	0.589006	1665.486084
1805.712789	0.089689	0.589006	1745.847168
1805.713727	0.089663	0.589006	1829.951172
1806.732363	1.072416	0.588502	470.790497
1806.733334	0.594880	0.588502	1048.419312
1806.734237	0.091271	0.588502	1130.836792
1806.735131	0.089583	0.588502	1210.923584
1806.736050	0.089659	0.588502	1293.320557
1806.736946	0.089634	0.588502	1373.632446
1806.737879	0.089593	0.588502	1457.223145
1806.738791	0.089612	0.588502	1538.949097
1806.739683	0.089626	0.588502	1618.895874
1806.740592	0.089564	0.588502	1700.309692
1806.741518	0.089586	0.588502	1783.266479
1806.742417	0.089590	0.588502	1863.807739
1807.740639	1.089269	0.587527	492.349487
1807.741563	0.606434	0.587527	1052.694824
1807.742455	0.092014	0.587527	1134.771484
1807.743399	0.089539	0.587527	1219.295898
1807.744312	0.089557	0.587527	1301.061279
1807.745214	0.089568	0.587527	1381.851562
1807.746105	0.089637	0.587527	1461.718506
1807.747056	0.089692	0.587527	1547.015991
1807.747962	0.089593	0.587527	1628.187744
1807.748859	0.089652	0.587527	1708.605713
1807.749794	0.089663	0.587527	1792.440674
1807.750700	0.089707	0.587527	1873.715210
1808.767967	1.088749	0.603197	491.025665
1808.768868	0.628638	0.603197	1057.428223
1808.769805	0.092289	0.603197	1143.902832
1808.770713	0.089652	0.603197	1225.306885
1808.771618	0.089612	0.603197	1306.405640
1808.772511	0.089612	0.603197	1386.428955
1808.773465	0.089711	0.603197	1472.012939
1808.774365	0.089634	0.603197	1552.683350
1808.775263	0.089601	0.603197	1633.144897
1808.776171	0.089678	0.603197	1714.572266
1808.777104	0.089674	0.603197	1798.238159
1808.778002	0.089590	0.603197	1878.689819
1809.777892	1.103514	0.587435	514.237732
1809.778796	0.607961	0.587435	1063.834839
1809.779738	0.091901	0.587435	1150.405273
1809.780643	0.089604	0.587435	1231.497314
1809.781541	0.089689	0.587435	1312.037842
1809.782431	0.089670	0.587435	1391.844482
1809.783381	0.089674	0.587435	1477.034912
1809.784276	0.089674	0.587435	1557.293213
1809.785174	0.089590	0.587435	1637.744873
1809.786094	0.089652	0.587435	1720.224854
1809.787021	0.089619	0.587435	1803.301758
1809.787928	0.089546	0.587435	1884.519897
1810.805075	1.077997	0.618602	478.630615
1810.805994	0.631113	0.618602	1058.623779
1810.806923	0.091600	0.618602	1143.720459
1810.807834	0.089531	0.618602	1225.283447
1810.808730	0.089626	0.618602	1305.588745
1810.809655	0.089630	0.618602	1388.496582
1810.810564	0.089623	0.618602	1469.963745
1810.811469	0.089623	0.618602	1551.072388
1810.812361	0.089604	0.618602	1630.999634
1810.813323	0.089630	0.618602	1717.223877
1810.814231	0.089619	0.618602	1798.598022
1810.815132	0.089513	0.618602	1879.249146
1811.812988	1.131068	0.596555	550.830200
1811.813918	0.535953	0.596555	1049.266846
1811.814817	0.091143	0.596555	1131.203979
1811.815703	0.089583	0.596555	1210.574097
1811.816658	0.089670	0.596555	1296.209351
1811.817570	0.089667	0.596555	1377.985474
1811.818467	0.089608	0.596555	1458.364014
1811.819396	0.089659	0.596555	1541.657593
1811.820295	0.089703	0.596555	1622.300903
1811.821193	0.089630	0.596555	1702.788818
1811.822078	0.089659	0.596555	1782.137451
1811.823015	0.089623	0.596555	1866.114014
1812.838729	1.069629	0.619673	469.567047
1812.839706	0.545369	0.619673	1002.392212
1812.840605	0.091326	0.619673	1084.494019
1812.841503	0.089535	0.619673	1164.896362
1812.842400	0.089593	0.619673	1245.261719
1812.843335	0.089696	0.619673	1329.127563
1812.844246	0.089619	0.619673	1410.770630
1812.845142	0.089597	0.619673	1491.049683
1812.846076	0.089648	0.619673	1574.781372
1812.846979	0.089648	0.619673	1655.733887
1812.847884	0.089550	0.619673	1736.776245
1812.848806	0.089546	0.619673	1819.337524
1813.848781	1.078638	0.600599	475.679230
1813.849742	0.557970	0.600599	1011.888428
1813.850656	0.091296	0.600599	1095.333374
1813.851555	0.089615	0.600599	1175.897705
1813.852491	0.089667	0.600599	1259.825806
1813.853400	0.089685	0.600599	1341.349487
1813.854298	0.089641	0.600599	1421.847168
1813.855185	0.089663	0.600599	1501.378296
1813.856138	0.089645	0.600599	1586.809814
1813.857040	0.089623	0.600599	1667.649536
1813.857938	0.089670	0.600599	1748.173584
1813.858825	0.089583	0.600599	1827.633301
1814.872916	1.081578	0.610855	478.057648
1814.873838	0.629579	0.610855	1058.529297
1814.874739	0.092124	0.610855	1141.533081
1814.875670	0.089645	0.610855	1224.992310
1814.876568	0.089707	0.610855	1305.549194
1814.877479	0.089593	0.610855	1387.168823
1814.878371	0.089604	0.610855	1467.096069
1814.879315	0.089711	0.610855	1551.782959
1814.880209	0.089593	0.610855	1631.879517
1814.881113	0.089608	0.610855	1712.885254
1814.882003	0.089634	0.610855	1792.659302
1814.882950	0.089736	0.610855	1877.639648
1815.882637	1.144307	0.595330	572.153320
1815.883550	0.539011	0.595330	1064.270508
1815.884451	0.091172	0.595330	1146.416382
1815.885342	0.089542	0.595330	1226.198486
1815.886288	0.089729	0.595330	1311.082153
1815.887195	0.089663	0.595330	1392.406616
1815.888092	0.089637	0.595330	1472.811401
1815.889016	0.089678	0.595330	1555.673584
1815.889918	0.089630	0.595330	1636.520020
1815.890816	0.089659	0.595330	1717.034180
1815.891705	0.089648	0.595330	1796.731689
1815.892644	0.089685	0.595330	1880.945923
1816.907223	1.083754	0.607991	487.689178
1816.908119	0.644099	0.607991	1064.802002
1816.909072	0.092219	0.607991	1152.686890
1816.909964	0.089561	0.607991	1232.574951
1816.910861	0.089601	0.607991	1312.946899
1816.911750	0.089586	0.607991	1392.588989
1816.912692	0.089725	0.607991	1477.110229
1816.913602	0.089601	0.607991	1558.646973
1816.914500	0.089656	0.607991	1639.157837
1816.915416	0.089590	0.607991	1721.222168
1816.916324	0.089648	0.607991	1802.622925
1816.917231	0.089583	0.607991	1883.874268
1817.916253	1.083776	0.604841	483.363922
1817.917173	0.616172	0.604841	1050.242065
1817.918067	0.092153	0.604841	1132.627075
1817.919003	0.089604	0.604841	1216.496826
1817.919910	0.089652	0.604841	1297.811279
1817.920807	0.089641	0.604841	1378.219360
1817.921692	0.089619	0.604841	1457.532349
1817.922642	0.089747	0.604841	1542.792236
1817.923545	0.089597	0.604841	1623.698486
1817.924436	0.089626	0.604841	1703.555664
1817.925360	0.089601	0.604841	1786.346802
1817.926262	0.089700	0.604841	1867.255981
1818.943455	1.093187	0.618127	494.120605
1818.944361	0.620739	0.618127	1056.509766
1818.945301	0.092366	0.618127	1143.333496
1818.946208	0.089557	0.618127	1224.561646
1818.947111	0.089568	0.618127	1305.441406
1818.948003	0.089583	0.618127	1385.348999
1818.948945	0.089637	0.618127	1469.787476
1818.949850	0.089630	0.618127	1550.902710
1818.950749	0.089634	0.618127	1631.483521
1818.951636	0.089652	0.618127	1711.004883
1818.952570	0.089692	0.618127	1794.777588
1818.953485	0.089564	0.618127	1876.728882
1819.951691	1.085841	0.625281	478.855896
1819.952668	0.535913	0.625281	1002.442993
1819.953577	0.090985	0.625281	1085.148437
1819.954474	0.089593	0.625281	1165.513794
1819.955396	0.089634	0.625281	1248.156128
1819.956291	0.089634	0.625281	1328.378418
1819.957184	0.089586	0.625281	1408.378906
1819.958072	0.089615	0.625281	1487.957397
1819.959006	0.089696	0.625281	1571.733521
1819.959906	0.089590	0.625281	1652.364380
1819.960808	0.089615	0.625281	1733.197510
1819.961708	0.089648	0.625281	1813.881104
1820.980563	1.070402	0.627790	470.976685
1820.981456	0.649673	0.627790	1051.134521
1820.982398	0.091824	0.627790	1137.632446
1820.983309	0.089506	0.627790	1219.172119
1820.984212	0.089626	0.627790	1300.104858
1820.985143	0.089678	0.627790	1383.594849
1820.986044	0.089689	0.627790	1464.404419
1820.986946	0.089615	0.627790	1545.237549
1820.987837	0.089696	0.627790	1625.156738
1820.988804	0.089681	0.627790	1711.878662
1820.989703	0.089641	0.627790	1792.466064
1820.990604	0.089674	0.627790	1873.262451
1821.984087	1.077517	0.649523	475.184998
1821.985029	0.617435	0.649523	1056.809082
1821.985930	0.091765	0.649523	1139.489502
1821.986826	0.089480	0.649523	1219.663574
1821.987711	0.089615	0.649523	1298.973267
1821.988639	0.089722	0.649523	1382.234985
1821.989547	0.089667	0.649523	1463.652344
1821.990451	0.089619	0.649523	1544.668091
1821.991339	0.089634	0.649523	1624.262939
1821.992295	0.089678	0.649523	1709.994873
1821.993198	0.089612	0.649523	1790.914307
1821.994097	0.089652	0.649523	1871.511597
1823.017672	1.065190	0.620366	466.553406
1823.018657	0.528549	0.620366	987.173767
1823.019562	0.091051	0.620366	1069.574951
1823.020465	0.089553	0.620366	1150.441528
1823.021354	0.089590	0.620366	1230.086914
1823.022296	0.089670	0.620366	1314.556396
1823.023210	0.089597	0.620366	1396.448242
1823.024097	0.089641	0.620366	1475.959961
1823.025017	0.089597	0.620366	1558.389404
1823.025923	0.089685	0.620366	1639.644043
1823.026822	0.089597	0.620366	1720.191895
1823.027713	0.089637	0.620366	1800.058838
1824.014673	1.076752	0.647654	480.231262
1824.015661	0.521093	0.647654	995.070679
1824.016575	0.090868	0.647654	1078.123901
1824.017475	0.089590	0.647654	1158.754761
1824.018370	0.089656	0.647654	1238.996704
1824.019301	0.089674	0.647654	1322.483276
1824.020205	0.089601	0.647654	1403.482422
1824.021097	0.089612	0.647654	1483.416138
1824.022022	0.089659	0.647654	1566.351074
1824.022930	0.089626	0.647654	1647.731934
1824.023829	0.089696	0.647654	1728.368652
1824.024755	0.089645	0.647654	1811.379761
1825.054026	1.069292	0.611588	468.349884
1825.054997	0.571036	0.611588	1022.826172
1825.055901	0.091366	0.611588	1105.421021
1825.056794	0.089517	0.611588	1185.359375
1825.057685	0.089597	0.611588	1265.190430
1825.058630	0.089696	0.611588	1349.953125
1825.059535	0.089583	0.611588	1431.025269
1825.060436	0.089612	0.611588	1511.765503
1825.061369	0.089707	0.611588	1595.462158
1825.062271	0.089714	0.611588	1676.384521
1825.063168	0.089579	0.611588	1756.736816
1825.064056	0.089641	0.611588	1836.338135
1826.048205	1.069431	0.632218	472.688599
1826.049193	0.538048	0.632218	1004.280090
1826.050097	0.091044	0.632218	1086.583618
1826.050985	0.089436	0.632218	1166.002808
1826.051923	0.089612	0.632218	1250.058716
1826.052834	0.089476	0.632218	1331.571655
1826.053735	0.089593	0.632218	1412.295410
1826.054622	0.089550	0.632218	1491.725830
1826.055579	0.089604	0.632218	1577.477295
1826.056485	0.089491	0.632218	1658.556152
1826.057373	0.089572	0.632218	1738.095703
1826.058291	0.089572	0.632218	1820.322388
1827.092562	1.077455	0.620640	480.544830
1827.093460	0.647289	0.620640	1061.810181
1827.094377	0.092743	0.620640	1146.855469
1827.095318	0.089685	0.620640	1231.249146
1827.096227	0.089656	0.620640	1312.746216
1827.097126	0.089674	0.620640	1393.363159
1827.098061	0.089718	0.620640	1477.249512
1827.098960	0.089692	0.620640	1557.882935
1827.099859	0.089590	0.620640	1638.424194
1827.100749	0.089615	0.620640	1718.182007
1827.101688	0.089714	0.620640	1802.423828
1827.102586	0.089667	0.620640	1882.944580
1828.084419	1.059891	0.643062	456.813171
1828.085367	0.612382	0.643062	1037.350830
1828.086280	0.091538	0.643062	1120.925049
1828.087205	0.089575	0.643062	1203.782104
1828.088097	0.089626	0.643062	1283.728882
1828.089047	0.089736	0.643062	1368.978394
1828.089945	0.089630	0.643062	1449.466309
1828.090858	0.089711	0.643062	1531.372192
1828.091753	0.089678	0.643062	1611.633789
1828.092706	0.089593	0.643062	1697.016357
1828.093610	0.089718	0.643062	1778.121460
1828.094504	0.089696	0.643062	1858.309692
1829.128150	1.083127	0.635134	475.492981
1829.129081	0.622002	0.635134	1054.576782
1829.129977	0.092095	0.635134	1137.093628
1829.130903	0.089623	0.635134	1220.084351
1829.131826	0.089729	0.635134	1302.904175
1829.132730	0.089725	0.635134	1384.015869
1829.133629	0.089623	0.635134	1464.586792
1829.134565	0.089681	0.635134	1548.528564
1829.135463	0.089703	0.635134	1629.082153
1829.136364	0.089670	0.635134	1709.875244
1829.137248	0.089678	0.635134	1789.150391
1829.138182	0.089762	0.635134	1872.988037
1830.121829	1.097677	0.633015	499.443024
1830.122733	0.624521	0.633015	1064.010498
1830.123623	0.092391	0.633015	1146.238770
1830.124587	0.089601	0.633015	1232.614014
1830.125478	0.089696	0.633015	1312.533203
1830.126383	0.089703	0.633015	1393.714722
1830.127306	0.089597	0.633015	1476.412842
1830.128196	0.089703	0.633015	1556.248901
1830.129147	0.089663	0.633015	1641.518555
1830.130048	0.089608	0.633015	1722.255493
1830.130940	0.089670	0.633015	1802.241455
1830.131876	0.089619	0.633015	1886.125000
1831.159259	1.089276	0.634558	492.352783
1831.160161	0.632933	0.634558	1063.258667
1831.161071	0.092618	0.634558	1147.541382
1831.161999	0.089623	0.634558	1230.711304
1831.162893	0.089652	0.634558	1310.860229
1831.163783	0.089637	0.634558	1390.637573
1831.164715	0.089740	0.634558	1474.275269
1831.165636	0.089630	0.634558	1556.824585
1831.166540	0.089718	0.634558	1637.929687
1831.167429	0.089711	0.634558	1717.682495
1831.168371	0.089762	0.634558	1802.238281
1831.169266	0.089608	0.634558	1882.437622
1832.156364	1.067791	0.644451	468.760040
1832.157315	0.626030	0.644451	1064.114868
1832.158216	0.091659	0.644451	1146.699585
1832.159125	0.089539	0.644451	1228.090088
1832.160024	0.089689	0.644451	1308.720215
1832.160957	0.089714	0.644451	1392.423706
1832.161859	0.089674	0.644451	1473.309692
1832.162770	0.089601	0.644451	1554.936035
1832.163684	0.089612	0.644451	1636.841187
1832.164570	0.089608	0.644451	1716.234009
1832.165518	0.089630	0.644451	1801.203369
1832.166418	0.089597	0.644451	1881.840820
1833.189724	1.081234	0.633148	485.474121
1833.190617	0.639170	0.633148	1056.252930
1833.191584	0.091542	0.633148	1144.773804
1833.192479	0.089626	0.633148	1224.989502
1833.193370	0.089707	0.633148	1304.918457
1833.194293	0.089692	0.633148	1387.704590
1833.195219	0.089725	0.633148	1470.790283
1833.196132	0.089663	0.633148	1552.652710
1833.197021	0.089740	0.633148	1632.431519
1833.197978	0.089846	0.633148	1718.414307
1833.198879	0.089597	0.633148	1799.141357
1833.199773	0.089744	0.633148	1879.372192
1834.192984	1.081739	0.624088	480.292297
1834.193943	0.589731	0.624088	1045.844727
1834.194858	0.091187	0.624088	1129.280396
1834.195754	0.089564	0.624088	1209.529907
1834.196670	0.089659	0.624088	1291.657959
1834.197569	0.089711	0.624088	1372.307861
1834.198510	0.089802	0.624088	1456.811768
1834.199418	0.089626	0.624088	1538.192627
1834.200308	0.089663	0.624088	1617.992798
1834.201225	0.089670	0.624088	1700.220581
1834.202154	0.089707	0.624088	1783.558350
1834.203050	0.089645	0.624088	1863.880127
1835.223377	1.073741	0.619726	478.888672
1835.224272	0.636464	0.619726	1048.523560
1835.225223	0.091637	0.619726	1135.670288
1835.226132	0.089535	0.619726	1217.057495
1835.227020	0.089685	0.619726	1296.697876
1835.227948	0.089652	0.619726	1379.895020
1835.228857	0.089619	0.619726	1461.358765
1835.229778	0.089637	0.619726	1543.914795
1835.230670	0.089692	0.619726	1623.920410
1835.231617	0.089641	0.619726	1708.810547
1835.232524	0.089630	0.619726	1790.105103
1835.233414	0.089612	0.619726	1869.859619
1836.229708	1.070043	0.594162	469.748749
1836.230687	0.548346	0.594162	1006.579468
1836.231586	0.091340	0.594162	1088.694458
1836.232484	0.089692	0.594162	1169.238281
1836.233379	0.089766	0.594162	1249.578491
1836.234324	0.089799	0.594162	1334.438110
1836.235234	0.089707	0.594162	1416.071533
1836.236131	0.089714	0.594162	1496.545288
1836.237047	0.089769	0.594162	1578.773926
1836.237947	0.089736	0.594162	1659.536621
1836.238843	0.089670	0.594162	1739.881348
1836.239730	0.089758	0.594162	1819.496948
1837.257689	1.087921	0.616580	487.388672
1837.258613	0.608862	0.616580	1049.977539
1837.259515	0.091937	0.616580	1132.904907
1837.260462	0.089648	0.616580	1217.802002
1837.261365	0.089729	0.616580	1298.827271
1837.262268	0.089744	0.616580	1379.865845
1837.263155	0.089681	0.616580	1459.413208
1837.264099	0.089725	0.616580	1544.113892
1837.265008	0.089626	0.616580	1625.584351
1837.265900	0.089674	0.616580	1705.573608
1837.266828	0.089641	0.616580	1788.760498
1837.267739	0.089725	0.616580	1870.500244
1838.267361	1.079912	0.610871	482.720703
1838.268279	0.616769	0.610871	1048.914551
1838.269176	0.092095	0.610871	1131.523560
1838.270100	0.089645	0.610871	1214.355347
1838.271003	0.089762	0.610871	1295.410400
1838.271911	0.089630	0.610871	1376.794556
1838.272801	0.089626	0.610871	1456.562134
1838.273751	0.089740	0.610871	1541.815063
1838.274650	0.089711	0.610871	1622.464966
1838.275550	0.089736	0.610871	1703.227661
1838.276435	0.089670	0.610871	1782.585937
1838.277371	0.089685	0.610871	1866.531128
1839.295180	1.062209	0.629450	462.061127
1839.296074	0.670587	0.629450	1061.566040
1839.297034	0.091750	0.629450	1149.646484
1839.297940	0.089689	0.629450	1230.904419
1839.298840	0.089645	0.629450	1311.584717
1839.299730	0.089711	0.629450	1391.427246
1839.300670	0.089689	0.629450	1475.734619
1839.301583	0.089652	0.629450	1557.587036
1839.302484	0.089733	0.629450	1638.436157
1839.303417	0.089788	0.629450	1722.208008
1839.304324	0.089711	0.629450	1803.575562
1839.305223	0.089689	0.629450	1884.205688
1840.302790	1.072335	0.628922	470.755157
1840.303760	0.550953	0.628922	1005.179932
1840.304676	0.091190	0.628922	1088.710083
1840.305570	0.089597	0.628922	1168.809937
1840.306497	0.089703	0.628922	1251.964966
1840.307403	0.089678	0.628922	1333.213013
1840.308305	0.089579	0.628922	1414.013184
1840.309195	0.089593	0.628922	1493.751343
1840.310146	0.089685	0.628922	1579.041870
1840.311050	0.089630	0.628922	1660.067505
1840.311948	0.089615	0.628922	1740.542236
1840.312837	0.089645	0.628922	1820.236450
1841.329652	1.088815	0.641600	523.719910
1841.330594	0.541373	0.641600	1033.693481
1841.331505	0.091051	0.641600	1116.640991
1841.332395	0.089572	0.641600	1196.359619
1841.333326	0.089648	0.641600	1279.822266
1841.334235	0.089663	0.641600	1361.326050
1841.335136	0.089615	0.641600	1442.069580
1841.336028	0.089645	0.641600	1522.032715
1841.336984	0.089685	0.641600	1607.771606
1841.337885	0.089601	0.641600	1688.501953
1841.338789	0.089645	0.641600	1769.540771
1841.339715	0.089656	0.641600	1852.562012
1842.338763	1.063971	0.635102	464.955292
1842.339727	0.606233	0.635102	1049.363770
1842.340622	0.091472	0.635102	1131.231323
1842.341523	0.089608	0.635102	1211.968262
1842.342417	0.089722	0.635102	1292.179443
1842.343354	0.089641	0.635102	1376.173218
1842.344259	0.089608	0.635102	1457.268555
1842.345166	0.089711	0.635102	1538.636108
1842.346062	0.089634	0.635102	1618.947998
1842.347011	0.089703	0.635102	1704.076538
1842.347921	0.089711	0.635102	1785.713257
1842.348814	0.089615	0.635102	1865.739868
1843.362761	1.063264	0.643340	462.519897
1843.363727	0.565426	0.643340	1008.721436
1843.364639	0.091318	0.643340	1092.003784
1843.365538	0.089604	0.643340	1172.558228
1843.366477	0.089700	0.643340	1256.786255
1843.367379	0.089656	0.643340	1337.655762
1843.368276	0.089634	0.643340	1418.057251
1843.369162	0.089623	0.643340	1497.463013
1843.370096	0.089678	0.643340	1581.222046
1843.371007	0.089663	0.643340	1662.905151
1843.371905	0.089601	0.643340	1743.366699
1843.372836	0.089700	0.643340	1826.877075
1844.372933	1.066194	0.630715	462.728119
1844.373894	0.589259	0.630715	1029.006104
1844.374813	0.091355	0.630715	1112.961304
1844.375733	0.089601	0.630715	1195.394043
1844.376621	0.089623	0.630715	1274.979126
1844.377565	0.089612	0.630715	1359.572632
1844.378456	0.089612	0.630715	1439.416748
1844.379348	0.089626	0.630715	1519.363525
1844.380272	0.089652	0.630715	1602.202026
1844.381186	0.089652	0.630715	1684.144043
1844.382093	0.089615	0.630715	1765.425293
1844.382981	0.089601	0.630715	1844.990845
1845.397586	1.079432	0.646450	483.585693
1845.398484	0.644634	0.646450	1062.466797
1845.399428	0.092589	0.646450	1149.870972
1845.400335	0.089612	0.646450	1231.148926
1845.401243	0.089630	0.646450	1312.533081
1845.402162	0.089601	0.646450	1394.876221
1845.403051	0.089590	0.646450	1474.521606
1845.404002	0.089652	0.646450	1559.780762
1845.404910	0.089630	0.646450	1641.164917
1845.405824	0.089670	0.646450	1723.123657
1845.406725	0.089645	0.646450	1803.893555
1845.407677	0.089681	0.646450	1889.270264
1846.406994	1.081571	0.636898	481.299072
1846.407898	0.646124	0.636898	1065.395386
1846.408785	0.092739	0.636898	1147.655151
1846.409749	0.089652	0.636898	1234.079834
1846.410659	0.089674	0.636898	1315.683228
1846.411559	0.089572	0.636898	1396.297607
1846.412486	0.089663	0.636898	1479.415283
1846.413395	0.089689	0.636898	1560.942383
1846.414302	0.089593	0.636898	1642.203735
1846.415192	0.089579	0.636898	1721.928955
1846.416123	0.089659	0.636898	1805.401855
1846.417027	0.089733	0.636898	1886.520142
1847.433040	1.072873	0.648246	472.064331
1847.433966	0.626536	0.648246	1052.236328
1847.434856	0.092366	0.648246	1134.441772
1847.435784	0.089608	0.648246	1217.598145
1847.436681	0.089667	0.648246	1298.029175
1847.437590	0.089575	0.648246	1379.453003
1847.438480	0.089626	0.648246	1459.220581
1847.439415	0.089626	0.648246	1543.021362
1847.440321	0.089648	0.648246	1624.242798
1847.441227	0.089659	0.648246	1705.474243
1847.442116	0.089612	0.648246	1785.139160
1847.443068	0.089700	0.648246	1870.533325
1848.440919	1.072485	0.632205	477.255981
1848.441808	0.651072	0.632205	1056.058838
1848.442748	0.091718	0.632205	1142.273315
1848.443657	0.089586	0.632205	1223.707153
1848.444569	0.089535	0.632205	1305.363037
1848.445454	0.089579	0.632205	1384.640381
1848.446396	0.089670	0.632205	1469.109863
1848.447304	0.089572	0.632205	1550.440796
1848.448200	0.089509	0.632205	1630.641113
1848.449150	0.089575	0.632205	1715.737549
1848.450051	0.089645	0.632205	1796.507446
1848.450951	0.089604	0.632205	1877.151489
1849.466336	1.080286	0.656166	482.887695
1849.467258	0.604449	0.656166	1040.190063
1849.468153	0.091945	0.656166	1122.480469
1849.469084	0.089553	0.656166	1205.854492
1849.469988	0.089674	0.656166	1286.919800
1849.470893	0.089630	0.656166	1368.035034
1849.471785	0.089575	0.656166	1447.936157
1849.472738	0.089575	0.656166	1533.301270
1849.473644	0.089557	0.656166	1614.439819
1849.474536	0.089590	0.656166	1694.354004
1849.475437	0.089553	0.656166	1775.041504
1849.476350	0.089604	0.656166	1856.850342
1850.476889	1.087518	0.639908	489.383240
1850.477787	0.638716	0.639908	1062.950073
1850.478701	0.092490	0.639908	1147.486084
1850.479625	0.089608	0.639908	1230.284058
1850.480535	0.089553	0.639908	1311.777466
1850.481433	0.089553	0.639908	1392.196289
1850.482362	0.089681	0.639908	1475.510254
1850.483268	0.089630	0.639908	1556.715088
1850.484173	0.089637	0.639908	1637.837036
1850.485059	0.089528	0.639908	1717.158447
1850.486003	0.089674	0.639908	1801.810791
1850.486903	0.089645	0.639908	1882.491089
1851.502932	1.076671	0.642252	474.811951
1851.503859	0.629542	0.642252	1058.397583
1851.504757	0.092230	0.642252	1141.220337
1851.505689	0.089579	0.642252	1224.707886
1851.506592	0.089652	0.642252	1305.663696
1851.507493	0.089572	0.642252	1386.367676
1851.508383	0.089634	0.642252	1466.141724
1851.509329	0.089674	0.642252	1550.973389
1851.510229	0.089572	0.642252	1631.587769
1851.511120	0.089597	0.642252	1711.418823
1851.512048	0.089626	0.642252	1794.592163
1851.512956	0.089689	0.642252	1876.029541
1852.510815	1.089913	0.636991	490.460968
1852.511709	0.624298	0.636991	1048.583496
1852.512669	0.091556	0.636991	1136.477661
1852.513584	0.089506	0.636991	1218.375244
1852.514473	0.089645	0.636991	1298.069458
1852.515410	0.089689	0.636991	1382.107788
1852.516314	0.089689	0.636991	1463.186401
1852.517215	0.089608	0.636991	1543.923340
1852.518109	0.089612	0.636991	1624.036255
1852.519063	0.089659	0.636991	1709.571289
1852.519961	0.089601	0.636991	1790.032837
1852.520863	0.089612	0.636991	1870.862671
1853.539042	1.083673	0.642284	489.820251
1853.539970	0.601677	0.642284	1048.176758
1853.540861	0.091838	0.642284	1130.004761
1853.541786	0.089583	0.642284	1212.868652
1853.542700	0.089707	0.642284	1294.860840
1853.543607	0.089553	0.642284	1376.085571
1853.544509	0.089601	0.642284	1456.905518
1853.545438	0.089718	0.642284	1540.253540
1853.546338	0.089634	0.642284	1620.923950
1853.547234	0.089637	0.642284	1701.239136
1853.548131	0.089652	0.642284	1781.657104
1853.549072	0.089733	0.642284	1866.095581
1854.545637	1.095095	0.634792	491.697784
1854.546570	0.595569	0.634792	1047.363525
1854.547460	0.091915	0.634792	1129.168091
1854.548382	0.089604	0.634792	1211.783447
1854.549285	0.089634	0.634792	1292.722778
1854.550186	0.089597	0.634792	1373.449829
1854.551079	0.089586	0.634792	1453.450317
1854.552009	0.089583	0.634792	1536.762085
1854.552918	0.089583	0.634792	1618.192627
1854.553822	0.089539	0.634792	1699.135498
1854.554711	0.089615	0.634792	1778.803711
1854.555654	0.089648	0.634792	1863.342163
1855.574209	1.060184	0.661093	456.939453
1855.575175	0.585791	0.661093	1022.813599
1855.576079	0.091399	0.661093	1105.438232
1855.576980	0.089579	0.661093	1186.148804
1855.577869	0.089663	0.661093	1265.859253
1855.578814	0.089736	0.661093	1350.660034
1855.579718	0.089681	0.661093	1431.732056
1855.580611	0.089689	0.661093	1511.824097
1855.581527	0.089692	0.661093	1593.982300
1855.582442	0.089729	0.661093	1676.084351
1855.583349	0.089645	0.661093	1757.392212
1855.584250	0.089626	0.661093	1838.145630
1856.581071	1.072782	0.651461	474.169617
1856.582040	0.607251	0.651461	1062.595825
1856.582944	0.091205	0.651461	1145.045044
1856.583848	0.089601	0.651461	1226.044189
1856.584740	0.089586	0.651461	1305.955078
1856.585682	0.089711	0.651461	1390.462524
1856.586590	0.089557	0.651461	1471.780151
1856.587492	0.089608	0.651461	1552.606689
1856.588424	0.089641	0.651461	1636.152222
1856.589321	0.089612	0.651461	1716.534058
1856.590221	0.089579	0.651461	1797.155029
1856.591106	0.089601	0.651461	1876.451782
1857.610573	1.065055	0.667542	464.363922
1857.611533	0.610803	0.667542	1050.734985
1857.612447	0.091425	0.667542	1134.296997
1857.613343	0.089491	0.667542	1214.480957
1857.614231	0.089645	0.667542	1294.085571
1857.615167	0.089659	0.667542	1378.006836
1857.616071	0.089667	0.667542	1459.065552
1857.616978	0.089612	0.667542	1540.343506
1857.617866	0.089711	0.667542	1620.006592
1857.618814	0.089641	0.667542	1704.986328
1857.619727	0.089579	0.667542	1786.771851
1857.620618	0.089645	0.667542	1866.645386
1858.614016	1.128102	0.667808	552.769897
1858.614917	0.572487	0.667808	1068.580322
1858.615872	0.091179	0.667808	1155.656494
1858.616773	0.089564	0.667808	1236.353882
1858.617661	0.089561	0.667808	1315.883667
1858.618591	0.089615	0.667808	1399.226074
1858.619509	0.089590	0.667808	1481.469604
1858.620413	0.089572	0.667808	1562.442261
1858.621308	0.089637	0.667808	1642.667725
1858.622251	0.089667	0.667808	1727.223511
1858.623145	0.089579	0.667808	1807.307007
1858.624062	0.089641	0.667808	1889.507935
1859.646800	1.072533	0.674269	472.987000
1859.647700	0.640931	0.674269	1049.825195
1859.648653	0.091458	0.674269	1136.984253
1859.649563	0.089583	0.674269	1218.504395
1859.650451	0.089619	0.674269	1298.086182
1859.651394	0.089630	0.674269	1382.607422
1859.652292	0.089667	0.674269	1463.128174
1859.653187	0.089652	0.674269	1543.366821
1859.654074	0.089634	0.674269	1622.871948
1859.655015	0.089740	0.674269	1707.317261
1859.655919	0.089674	0.674269	1788.382568
1859.656826	0.089659	0.674269	1869.703613
1860.648140	1.071182	0.668243	470.248749
1860.649105	0.558193	0.668243	1008.905396
1860.650012	0.091223	0.668243	1091.644775
1860.650903	0.089612	0.668243	1171.488892
1860.651848	0.089707	0.668243	1256.262085
1860.652750	0.089637	0.668243	1337.115112
1860.653649	0.089579	0.668243	1417.646484
1860.654534	0.089656	0.668243	1496.991821
1860.655467	0.089681	0.668243	1580.664551
1860.656372	0.089623	0.668243	1661.773193
1860.657268	0.089557	0.668243	1742.016113
1860.658194	0.089597	0.668243	1824.983032
1861.684604	1.123400	0.665447	548.218994
1861.685528	0.541322	0.665447	1048.400513
1861.686435	0.091102	0.665447	1131.030273
1861.687323	0.089502	0.665447	1210.508057
1861.688270	0.089659	0.665447	1295.415527
1861.689173	0.089619	0.665447	1376.341553
1861.690067	0.089641	0.665447	1456.480713
1861.691003	0.089637	0.665447	1540.381348
1861.691907	0.089791	0.665447	1621.552612
1861.692815	0.089630	0.665447	1702.936768
1861.693716	0.089645	0.665447	1783.706665
1861.694644	0.089652	0.665447	1866.903809
1862.682077	1.089921	0.650832	485.014679
1862.682991	0.624064	0.650832	1055.408936
1862.683881	0.092311	0.650832	1137.565552
1862.684822	0.089593	0.650832	1221.873047
1862.685735	0.089615	0.650832	1303.692017
1862.686636	0.089612	0.650832	1384.432251
1862.687528	0.089583	0.650832	1464.339844
1862.688477	0.089572	0.650832	1549.343262
1862.689392	0.089539	0.650832	1631.270996
1862.690285	0.089601	0.650832	1711.284546
1862.691224	0.089711	0.650832	1795.522827
1862.692119	0.089608	0.650832	1875.722168
1863.719759	1.076166	0.634236	476.741455
1863.720665	0.641990	0.634236	1058.384155
1863.721607	0.091864	0.634236	1144.920044
1863.722508	0.089550	0.634236	1225.604248
1863.723404	0.089696	0.634236	1305.971924
1863.724336	0.089641	0.634236	1389.517456
1863.725242	0.089637	0.634236	1470.729004
1863.726149	0.089663	0.634236	1552.053467
1863.727037	0.089593	0.634236	1631.612549
1863.727992	0.089681	0.634236	1717.258301
1863.728895	0.089583	0.634236	1798.151367
1863.729788	0.089645	0.634236	1878.204102
1864.716279	1.133134	0.662241	541.637817
1864.717224	0.522162	0.662241	1035.080811
1864.718114	0.091168	0.662241	1116.220459
1864.719087	0.089612	0.662241	1203.412720
1864.719984	0.089667	0.662241	1283.843750
1864.720873	0.089656	0.662241	1363.547729
1864.721802	0.089634	0.662241	1446.817505
1864.722714	0.089612	0.662241	1528.543457
1864.723607	0.089674	0.662241	1608.622437
1864.724544	0.089725	0.662241	1692.695068
1864.725465	0.089612	0.662241	1775.227539
1864.726365	0.089674	0.662241	1855.934204
1865.755350	1.083442	0.655598	483.215332
1865.756249	0.644044	0.655598	1062.211060
1865.757174	0.092659	0.655598	1147.920410
1865.758098	0.089711	0.655598	1230.813110
1865.759007	0.089670	0.655598	1312.323486
1865.759904	0.089656	0.655598	1392.744751
1865.760826	0.089696	0.655598	1475.444458
1865.761727	0.089667	0.655598	1556.234253
1865.762629	0.089799	0.655598	1637.232544
1865.763515	0.089700	0.655598	1716.706543
1865.764451	0.089711	0.655598	1800.675781
1865.765355	0.089751	0.655598	1881.810669
1866.751823	1.073533	0.670938	473.427917
1866.752738	0.640031	0.670938	1059.055908
1866.753623	0.092582	0.670938	1140.990845
1866.754572	0.089670	0.670938	1226.088013
1866.755490	0.089612	0.670938	1308.351685
1866.756391	0.089557	0.670938	1389.042480
1866.757278	0.089619	0.670938	1468.534668
1866.758210	0.089689	0.670938	1552.124512
1866.759128	0.089553	0.670938	1634.334351
1866.760046	0.089579	0.670938	1716.567749
1866.760933	0.089641	0.670938	1796.079468
1866.761865	0.089619	0.670938	1879.604492
1867.787719	1.076221	0.654784	470.308472
1867.788702	0.535928	0.654784	997.125427
1867.789607	0.091128	0.654784	1079.596191
1867.790496	0.089604	0.654784	1159.254639
1867.791442	0.089678	0.654784	1244.089722
1867.792356	0.089630	0.654784	1326.011719
1867.793254	0.089645	0.654784	1406.512695
1867.794182	0.089637	0.654784	1489.696289
1867.795098	0.089626	0.654784	1571.794189
1867.796012	0.089692	0.654784	1653.773071
1867.796901	0.089619	0.654784	1733.444458
1867.797837	0.089700	0.654784	1817.403320
1868.788051	1.078579	0.678725	478.889099
1868.788954	0.642795	0.678725	1059.333252
1868.789842	0.092659	0.678725	1141.614136
1868.790801	0.089586	0.678725	1227.527344
1868.791707	0.089641	0.678725	1308.742187
1868.792608	0.089619	0.678725	1389.489014
1868.793513	0.089590	0.678725	1470.567871
1868.794430	0.089659	0.678725	1552.785522
1868.795331	0.089561	0.678725	1633.479614
1868.796229	0.089593	0.678725	1713.934570
1868.797155	0.089641	0.678725	1796.942261
1868.798057	0.089637	0.678725	1877.795288
1869.821651	1.075587	0.651505	480.787445
1869.822558	0.638862	0.651505	1060.235596
1869.823448	0.092417	0.651505	1142.486694
1869.824374	0.089597	0.651505	1225.453613
1869.825292	0.089601	0.651505	1307.707153
1869.826193	0.089630	0.651505	1388.463867
1869.827088	0.089648	0.651505	1468.699219
1869.828039	0.089626	0.651505	1553.933960
1869.828940	0.089608	0.651505	1634.670898
1869.829850	0.089572	0.651505	1716.181030
1869.830748	0.089586	0.651505	1796.629395
1869.831690	0.089637	0.651505	1881.067871
1870.824655	1.076239	0.694342	475.697632
1870.825568	0.633970	0.694342	1054.511963
1870.826456	0.092659	0.694342	1136.792847
1870.827416	0.089674	0.694342	1222.880005
1870.828324	0.089645	0.694342	1304.277466
1870.829216	0.089670	0.694342	1384.263428
1870.830141	0.089678	0.694342	1467.215332
1870.831048	0.089707	0.694342	1548.579590
1870.831949	0.089641	0.694342	1629.346191
1870.832837	0.089612	0.694342	1708.921509
1870.833784	0.089681	0.694342	1793.849854
1870.834689	0.089663	0.694342	1874.994995
1871.856328	1.073910	0.671457	471.446442
1871.857306	0.534426	0.671457	994.115356
1871.858218	0.091022	0.671457	1077.127197
1871.859112	0.089583	0.671457	1157.213989
1871.860049	0.089604	0.671457	1241.173340
1871.860952	0.089722	0.671457	1322.192017
1871.861848	0.089674	0.671457	1402.540039
1871.862736	0.089630	0.671457	1482.131592
1871.863679	0.089685	0.671457	1566.704590
1871.864568	0.089615	0.671457	1646.372803
1871.865468	0.089652	0.671457	1727.059692
1871.866358	0.089593	0.671457	1806.797852
1872.863239	1.101676	0.665125	551.939697
1872.864170	0.516270	0.665125	1032.586670
1872.865070	0.091051	0.665125	1114.532593
1872.865958	0.089546	0.665125	1194.049316
1872.866910	0.089670	0.665125	1279.415527
1872.867809	0.089579	0.665125	1359.946899
1872.868707	0.089626	0.665125	1440.431519
1872.869601	0.089648	0.665125	1520.577271
1872.870548	0.089674	0.665125	1605.498657
1872.871456	0.089572	0.665125	1686.829590
1872.872358	0.089667	0.665125	1767.708984
1872.873289	0.089681	0.665125	1851.202393
1873.890765	1.072006	0.667771	471.682465
1873.891671	0.655898	0.667771	1065.926514
1873.892557	0.093003	0.667771	1148.327148
1873.893522	0.089659	0.667771	1234.848511
1873.894430	0.089703	0.667771	1316.299194
1873.895328	0.089645	0.667771	1396.800171
1873.896214	0.089674	0.667771	1476.251343
1873.897152	0.089718	0.667771	1560.406860
1873.898062	0.089656	0.667771	1641.993652
1873.898964	0.089593	0.667771	1722.807007
1873.899896	0.089593	0.667771	1806.308105
1873.900800	0.089707	0.667771	1887.403320
1874.898508	1.068669	0.656065	467.008545
1874.899404	0.648523	0.656065	1048.085083
1874.900363	0.091450	0.656065	1135.785767
1874.901278	0.089648	0.656065	1217.814087
1874.902181	0.089601	0.656065	1298.723633
1874.903108	0.089722	0.656065	1381.895630
1874.904001	0.089681	0.656065	1461.981079
1874.904896	0.089557	0.656065	1542.134521
1874.905787	0.089648	0.656065	1622.011230
1874.906739	0.089608	0.656065	1707.318237
1874.907629	0.089626	0.656065	1787.085815
1874.908533	0.089579	0.656065	1868.065063
1875.925204	1.079908	0.670180	479.479309
1875.926103	0.635804	0.670180	1051.067505
1875.927048	0.091776	0.670180	1137.795898
1875.927953	0.089590	0.670180	1218.874756
1875.928848	0.089579	0.670180	1299.047852
1875.929778	0.089685	0.670180	1382.454956
1875.930685	0.089678	0.670180	1463.792725
1875.931587	0.089678	0.670180	1544.682007
1875.932475	0.089674	0.670180	1624.312622
1875.933412	0.089758	0.670180	1708.416138
1875.934315	0.089667	0.670180	1789.385254
1875.935210	0.089692	0.670180	1869.659912
1876.934232	1.079993	0.659372	479.516724
1876.935137	0.635742	0.659372	1054.863403
1876.936062	0.092483	0.659372	1140.410156
1876.936991	0.089670	0.659372	1223.713989
1876.937896	0.089663	0.659372	1304.859131
1876.938795	0.089645	0.659372	1385.449829
1876.939732	0.089751	0.659372	1469.546509
1876.940632	0.089667	0.659372	1550.246582
1876.941532	0.089703	0.659372	1630.979614
1876.942421	0.089659	0.659372	1710.686890
1876.943349	0.089722	0.659372	1793.948608
1876.944258	0.089623	0.659372	1875.415771
1877.959685	1.138129	0.685625	565.649963
1877.960617	0.514999	0.685625	1045.628784
1877.961521	0.090934	0.685625	1127.833008
1877.962412	0.089586	0.685625	1207.654297
1877.963353	0.089681	0.685625	1292.044434
1877.964261	0.089626	0.685625	1373.425293
1877.965163	0.089612	0.685625	1454.255127
1877.966092	0.089630	0.685625	1537.521484
1877.966991	0.089696	0.685625	1618.158203
1877.967888	0.089652	0.685625	1698.576172
1877.968774	0.089663	0.685625	1778.017700
1877.969711	0.089703	0.685625	1862.069824
1878.968517	1.065608	0.664601	463.539429
1878.969483	0.583059	0.664601	1026.774414
1878.970387	0.091417	0.664601	1109.415649
1878.971284	0.089593	0.664601	1189.781006
1878.972173	0.089656	0.664601	1269.484985
1878.973119	0.089685	0.664601	1354.327026
1878.974019	0.089648	0.664601	1435.010620
1878.974919	0.089670	0.664601	1515.713989
1878.975835	0.089641	0.664601	1597.825195
1878.976760	0.089689	0.664601	1680.787231
1878.977664	0.089593	0.664601	1761.779785
1878.978560	0.089663	0.664601	1842.117920
1879.994707	1.076649	0.674938	475.878937
1879.995604	0.639342	0.674938	1049.368774
1879.996563	0.091659	0.674938	1137.269653
1879.997472	0.089539	0.674938	1218.660156
1879.998361	0.089637	0.674938	1298.347900
1879.999289	0.089641	0.674938	1381.534912
1880.000197	0.089681	0.674938	1462.965576
1880.001098	0.089656	0.674938	1543.745361
1880.001989	0.089608	0.674938	1623.586182
1880.002929	0.089696	0.674938	1707.900513
1880.003826	0.089700	0.674938	1788.361206
1880.004725	0.089659	0.674938	1868.965088
1881.002972	1.082534	0.663397	482.810242
1881.003903	0.607050	0.663397	1047.973389
1881.004791	0.092065	0.663397	1129.727539
1881.005718	0.089656	0.663397	1212.838379
1881.006620	0.089711	0.663397	1293.757446
1881.007528	0.089685	0.663397	1375.191528
1881.008422	0.089593	0.663397	1455.288086
1881.009362	0.089703	0.663397	1539.609253
1881.010265	0.089623	0.663397	1620.538696
1881.011167	0.089663	0.663397	1701.414795
1881.012058	0.089681	0.663397	1781.320923
1881.012997	0.089725	0.663397	1865.572998
1882.030802	1.083050	0.683901	485.206604
1882.031705	0.637035	0.683901	1060.449097
1882.032645	0.091838	0.683901	1146.777222
1882.033555	0.089593	0.683901	1228.307251
1882.034456	0.089630	0.683901	1309.063965
1882.035347	0.089626	0.683901	1388.921143
1882.036287	0.089744	0.683901	1473.280151
1882.037190	0.089608	0.683901	1554.196289
1882.038083	0.089681	0.683901	1634.281738
1882.039011	0.089670	0.683901	1717.495850
1882.039918	0.089648	0.683901	1798.807007
1882.040814	0.089634	0.683901	1879.118896
1883.039742	1.124304	0.684856	540.790283
1883.040660	0.559995	0.684856	1054.865723
1883.041559	0.091344	0.684856	1136.984009
1883.042452	0.089557	0.684856	1216.958252
1883.043389	0.089597	0.684856	1300.910767
1883.044292	0.089648	0.684856	1381.863281
1883.045180	0.089612	0.684856	1461.438599
1883.046126	0.089729	0.684856	1546.322266
1883.047031	0.089623	0.684856	1627.430908
1883.047929	0.089626	0.684856	1707.915527
1883.048855	0.089692	0.684856	1790.970703
1883.049758	0.089634	0.684856	1871.910034
1884.066518	1.089335	0.688227	490.200623
1884.067430	0.621130	0.688227	1056.671509
1884.068319	0.092377	0.688227	1138.794434
1884.069276	0.089667	0.688227	1224.605469
1884.070184	0.089623	0.688227	1305.982910
1884.071080	0.089583	0.688227	1386.248901
1884.071980	0.089645	0.688227	1466.929199
1884.072899	0.089714	0.688227	1549.376709
1884.073808	0.089601	0.688227	1630.823853
1884.074707	0.089674	0.688227	1711.440796
1884.075642	0.089733	0.688227	1795.340820
1884.076543	0.089751	0.688227	1876.206421
1885.074763	1.068442	0.682612	464.772461
1885.075705	0.638518	0.682612	1066.256470
1885.076614	0.091597	0.682612	1149.517822
1885.077518	0.089568	0.682612	1230.487183
1885.078405	0.089572	0.682612	1309.937134
1885.079349	0.089678	0.682612	1394.592896
1885.080248	0.089623	0.682612	1475.163818
1885.081146	0.089692	0.682612	1555.707520
1885.082076	0.089736	0.682612	1639.162354
1885.082979	0.089674	0.682612	1720.138062
1885.083880	0.089590	0.682612	1800.858521
1885.084768	0.089583	0.682612	1880.407837
1886.101580	1.079070	0.691571	478.027954
1886.102549	0.544915	0.691571	1006.050171
1886.103470	0.091124	0.691571	1089.975586
1886.104368	0.089572	0.691571	1170.410767
1886.105289	0.089722	0.691571	1253.044434
1886.106194	0.089703	0.691571	1334.225952
1886.107091	0.089615	0.691571	1414.611084
1886.107982	0.089637	0.691571	1494.478027
1886.108927	0.089656	0.691571	1579.202759
1886.109827	0.089630	0.691571	1659.869873
1886.110730	0.089641	0.691571	1740.815796
1886.111617	0.089590	0.691571	1820.281982
1887.110612	1.078674	0.682302	483.246094
1887.111510	0.641228	0.682302	1059.068848
1887.112446	0.092380	0.682302	1145.536865
1887.113352	0.089564	0.682302	1226.682007
1887.114250	0.089678	0.682302	1307.212646
1887.115140	0.089681	0.682302	1387.029053
1887.116077	0.089696	0.682302	1471.074219
1887.116967	0.089659	0.682302	1550.871094
1887.117874	0.089626	0.682302	1632.162354
1887.118767	0.089670	0.682302	1712.238037
1887.119713	0.089736	0.682302	1797.128662
1887.120619	0.089663	0.682302	1878.363403
1888.136542	1.088214	0.694842	489.696381
1888.137446	0.638448	0.694842	1066.853760
1888.138334	0.092662	0.694842	1149.137939
1888.139277	0.089733	0.694842	1233.755859
1888.140179	0.089707	0.694842	1314.671631
1888.141068	0.089692	0.694842	1394.408203
1888.141998	0.089696	0.694842	1477.825562
1888.142910	0.089645	0.694842	1559.581543
1888.143812	0.089648	0.694842	1640.444458
1888.144699	0.089670	0.694842	1719.982178
1888.145652	0.089722	0.694842	1805.486938
1888.146561	0.089678	0.694842	1887.004028
1889.145294	1.072540	0.680702	475.135345
1889.146264	0.544563	0.680702	1003.361450
1889.147173	0.091073	0.680702	1086.146851
1889.148105	0.089542	0.680702	1169.600220
1889.148995	0.089692	0.680702	1249.426392
1889.149947	0.089619	0.680702	1334.743774
1889.150846	0.089685	0.680702	1415.370605
1889.151733	0.089641	0.680702	1494.882324
1889.152666	0.089729	0.680702	1578.599487
1889.153566	0.089659	0.680702	1659.292969
1889.154459	0.089637	0.680702	1739.339233
1889.155386	0.089689	0.680702	1822.480713
1890.172763	1.091517	0.688618	492.274323
1890.173672	0.619358	0.688618	1055.270752
1890.174562	0.092303	0.688618	1137.420898
1890.175516	0.089612	0.688618	1222.910522
1890.176418	0.089557	0.688618	1303.690796
1890.177312	0.089634	0.688618	1383.823364
1890.178199	0.089568	0.688618	1463.270020
1890.179140	0.089714	0.688618	1547.691284
1890.180047	0.089553	0.688618	1628.916016
1890.180937	0.089561	0.688618	1708.624878
1890.181870	0.089667	0.688618	1792.283936
1890.182776	0.089586	0.688618	1873.448975
1891.178717	1.085427	0.696743	485.186005
1891.179648	0.608126	0.696743	1051.351562
1891.180542	0.092058	0.696743	1133.651489
1891.181431	0.089590	0.696743	1213.296875
1891.182377	0.089678	0.696743	1298.131958
1891.183285	0.089634	0.696743	1379.519409
1891.184203	0.089634	0.696743	1461.803223
1891.185099	0.089630	0.696743	1542.111816
1891.186053	0.089670	0.696743	1627.657349
1891.186970	0.089630	0.696743	1709.848145
1891.187891	0.089696	0.696743	1792.458252
1891.188779	0.089641	0.696743	1872.059570
1892.207816	1.064784	0.694056	463.181000
1892.208740	0.642839	0.694056	1057.164551
1892.209674	0.091512	0.694056	1142.637207
1892.210576	0.089550	0.694056	1223.410889
1892.211467	0.089674	0.694056	1303.310547
1892.212406	0.089678	0.694056	1387.517944
1892.213329	0.089659	0.694056	1470.273560
1892.214246	0.089703	0.694056	1552.531494
1892.215134	0.089652	0.694056	1632.142578
1892.216080	0.089667	0.694056	1716.967285
1892.216970	0.089659	0.694056	1796.764160
1892.217863	0.089641	0.694056	1876.813721
1893.211986	1.079916	0.704663	477.322754
1893.212915	0.608796	0.704663	1042.894531
1893.213808	0.092014	0.704663	1125.063232
1893.214739	0.089619	0.704663	1208.498657
1893.215639	0.089608	0.704663	1289.145996
1893.216536	0.089670	0.704663	1369.580322
1893.217425	0.089524	0.704663	1449.167114
1893.218359	0.089674	0.704663	1532.922729
1893.219251	0.089630	0.704663	1612.872803
1893.220157	0.089667	0.704663	1694.110840
1893.221065	0.089583	0.704663	1775.451782
1893.221998	0.089707	0.704663	1859.148437
1894.244425	1.065875	0.678153	463.655762
1894.245368	0.626382	0.678153	1054.333862
1894.246273	0.091670	0.678153	1137.295166
1894.247197	0.089528	0.678153	1220.018677
1894.248084	0.089641	0.678153	1299.530396
1894.249045	0.089615	0.678153	1385.650879
1894.249945	0.089568	0.678153	1466.261963
1894.250867	0.089564	0.678153	1548.840210
1894.251753	0.089670	0.678153	1628.288208
1894.252705	0.089601	0.678153	1713.588135
1894.253610	0.089674	0.678153	1794.743164
1894.254502	0.089604	0.678153	1874.670410
1895.244672	1.135642	0.708014	551.922058
1895.245595	0.550964	0.708014	1060.462158
1895.246499	0.091300	0.708014	1142.997437
1895.247387	0.089707	0.708014	1222.657227
1895.248321	0.089703	0.708014	1306.440186
1895.249224	0.089652	0.708014	1387.395996
1895.250119	0.089681	0.708014	1467.660889
1895.251041	0.089766	0.708014	1550.424805
1895.251949	0.089714	0.708014	1631.885498
1895.252851	0.089597	0.708014	1712.702148
1895.253741	0.089659	0.708014	1792.499023
1895.254665	0.089755	0.708014	1875.432373
1896.281694	1.082626	0.685351	485.016327
1896.282629	0.603929	0.685351	1049.690430
1896.283517	0.092043	0.685351	1131.425049
1896.284446	0.089564	0.685351	1214.630249
1896.285352	0.089623	0.685351	1295.828491
1896.286257	0.089656	0.685351	1376.966919
1896.287151	0.089659	0.685351	1457.122437
1896.288101	0.089619	0.685351	1542.260620
1896.289014	0.089579	0.685351	1624.046143
1896.289911	0.089593	0.685351	1704.411499
1896.290802	0.089615	0.685351	1784.258911
1896.291735	0.089637	0.685351	1867.890625
1897.277818	1.126230	0.694499	541.716797
1897.278736	0.552462	0.694499	1048.877075
1897.279634	0.091381	0.694499	1130.936890
1897.280526	0.089550	0.694499	1210.815063
1897.281478	0.089714	0.694499	1296.223145
1897.282385	0.089542	0.694499	1377.437988
1897.283287	0.089608	0.694499	1458.264526
1897.284220	0.089700	0.694499	1541.954346
1897.285118	0.089744	0.694499	1622.544189
1897.286018	0.089553	0.694499	1703.142090
1897.286902	0.089637	0.694499	1782.381592
1897.287847	0.089641	0.694499	1867.092407
1898.318297	1.085387	0.697448	488.424103
1898.319204	0.629528	0.697448	1059.405640
1898.320091	0.092410	0.697448	1141.373047
1898.321026	0.089652	0.697448	1225.197754
1898.321935	0.089637	0.697448	1306.678223
1898.322843	0.089641	0.697448	1388.072388
1898.323736	0.089593	0.697448	1468.079346
1898.324675	0.089736	0.697448	1552.341797
1898.325580	0.089561	0.697448	1633.394043
1898.326469	0.089674	0.697448	1713.114258
1898.327415	0.089707	0.697448	1797.977051
1898.328312	0.089718	0.697448	1878.454102
1899.312589	1.068010	0.694459	468.856476
1899.313481	0.660608	0.694459	1058.118774
1899.314425	0.091820	0.694459	1144.796875
1899.315335	0.089593	0.694459	1226.326904
1899.316243	0.089630	0.694459	1307.711060
1899.317166	0.089634	0.694459	1390.442993
1899.318085	0.089714	0.694459	1472.890503
1899.319001	0.089615	0.694459	1554.978271
1899.319900	0.089711	0.694459	1635.628174
1899.320843	0.089678	0.694459	1720.194336
1899.321742	0.089641	0.694459	1800.781738
1899.322637	0.089626	0.694459	1880.997437
1900.354525	1.084285	0.701009	484.675232
1900.355463	0.589966	0.701009	1038.063232
1900.356355	0.091956	0.701009	1120.087646
1900.357301	0.089597	0.701009	1204.846558
1900.358204	0.089696	0.701009	1285.842041
1900.359102	0.089586	0.701009	1366.290405
1900.360017	0.089564	0.701009	1448.241699
1900.360917	0.089648	0.701009	1528.925293
1900.361853	0.089663	0.701009	1612.849976
1900.362768	0.089623	0.701009	1694.854858
1900.363694	0.089575	0.701009	1777.801514
1900.364582	0.089663	0.701009	1857.422363
1901.348820	1.084691	0.696937	487.026337
1901.349718	0.644051	0.696937	1065.384521
1901.350678	0.091893	0.696937	1153.602051
1901.351578	0.089637	0.696937	1234.275757
1901.352478	0.089670	0.696937	1314.979126
1901.353361	0.089608	0.696937	1394.103149
1901.354292	0.089626	0.696937	1477.545410
1901.355192	0.089700	0.696937	1558.275146
1901.356092	0.089670	0.696937	1638.978516
1901.357019	0.089626	0.696937	1722.062256
1901.357931	0.089685	0.696937	1803.854980
1901.358836	0.089623	0.696937	1884.963623
1902.389323	1.066348	0.708687	462.794922
1902.390267	0.640305	0.708687	1067.242920
1902.391167	0.091871	0.708687	1149.927124
1902.392074	0.089568	0.708687	1231.165161
1902.392966	0.089656	0.708687	1311.138062
1902.393903	0.089736	0.708687	1395.220947
1902.394796	0.089714	0.708687	1475.335815
1902.395699	0.089711	0.708687	1556.344604
1902.396589	0.089692	0.708687	1636.170776
1902.397549	0.089762	0.708687	1722.342285
1902.398459	0.089648	0.708687	1803.922363
1902.399361	0.089656	0.708687	1884.791870
1903.384335	1.146105	0.714560	567.321899
1903.385267	0.524260	0.714560	1055.932373
1903.386165	0.091029	0.714560	1137.676514
1903.387107	0.089656	0.714560	1222.132202
1903.388002	0.089648	0.714560	1302.367554
1903.388907	0.089645	0.714560	1383.496094
1903.389795	0.089590	0.714560	1463.051880
1903.390741	0.089718	0.714560	1547.925171
1903.391657	0.089619	0.714560	1630.016357
1903.392556	0.089659	0.714560	1710.620239
1903.393480	0.089667	0.714560	1793.472290
1903.394386	0.089722	0.714560	1874.760132
1904.422354	1.078429	0.717421	477.743988
1904.423253	0.631469	0.717421	1045.434204
1904.424222	0.091227	0.717421	1133.833008
1904.425136	0.089619	0.717421	1215.744873
1904.426036	0.089630	0.717421	1296.411987
1904.426965	0.089744	0.717421	1379.783813
1904.427871	0.089700	0.717421	1461.051758
1904.428770	0.089663	0.717421	1541.658813
1904.429657	0.089707	0.717421	1621.229004
1904.430616	0.089634	0.717421	1707.187866
1904.431513	0.089659	0.717421	1787.612427
1904.432412	0.089659	0.717421	1868.216309
1905.422793	1.065846	0.715406	466.840546
1905.423770	0.552341	0.715406	1006.478027
1905.424667	0.091351	0.715406	1088.420166
1905.425573	0.089604	0.715406	1169.601807
1905.426469	0.089561	0.715406	1249.848022
1905.427406	0.089747	0.715406	1333.941284
1905.428315	0.089637	0.715406	1415.421753
1905.429217	0.089645	0.715406	1496.281372
1905.430144	0.089718	0.715406	1579.449951
1905.431041	0.089714	0.715406	1659.923706
1905.431946	0.089593	0.715406	1741.005859
1905.432836	0.089641	0.715406	1820.786499
1906.455378	1.071394	0.706685	474.627594
1906.456274	0.646373	0.706685	1053.778076
1906.457236	0.091846	0.706685	1142.133667
1906.458134	0.089601	0.706685	1222.595215
1906.459037	0.089696	0.706685	1303.590698
1906.459975	0.089725	0.706685	1387.753052
1906.460878	0.089791	0.706685	1468.834595
1906.461775	0.089674	0.706685	1549.272217
1906.462667	0.089747	0.706685	1629.326782
1906.463618	0.089718	0.706685	1714.648560
1906.464522	0.089725	0.706685	1795.760254
1906.465422	0.089722	0.706685	1876.509766
1907.456514	1.099757	0.704582	545.479492
1907.457422	0.557472	0.704582	1051.664062
1907.458322	0.091403	0.704582	1133.926392
1907.459213	0.089634	0.704582	1213.790039
1907.460143	0.089824	0.704582	1297.326538
1907.461044	0.089707	0.704582	1378.152588
1907.461945	0.089648	0.704582	1458.925781
1907.462833	0.089685	0.704582	1538.566162
1907.463776	0.089773	0.704582	1623.222046
1907.464687	0.089641	0.704582	1704.885132
1907.465582	0.089670	0.704582	1785.140137
1907.466506	0.089674	0.704582	1867.999023
1908.489426	1.078297	0.703978	474.450745
1908.490387	0.559871	0.703978	1012.486389
1908.491298	0.091436	0.703978	1095.784180
1908.492189	0.089634	0.703978	1175.647949
1908.493132	0.089707	0.703978	1260.241699
1908.494035	0.089696	0.703978	1341.237183
1908.494928	0.089634	0.703978	1421.280151
1908.495819	0.089604	0.703978	1501.117798
1908.496760	0.089692	0.703978	1585.518311
1908.497662	0.089667	0.703978	1666.397705
1908.498566	0.089659	0.703978	1747.449829
1908.499455	0.089597	0.703978	1827.101685
1909.493842	1.076591	0.692445	475.853027
1909.494747	0.648637	0.692445	1062.869141
1909.495635	0.092714	0.692445	1145.198853
1909.496614	0.089626	0.692445	1232.943115
1909.497513	0.089612	0.692445	1313.504150
1909.498421	0.089703	0.692445	1394.954834
1909.499310	0.089626	0.692445	1474.632812
1909.500251	0.089762	0.692445	1559.098877
1909.501165	0.089656	0.692445	1641.044189
1909.502064	0.089733	0.692445	1721.713867
1909.502999	0.089696	0.692445	1805.579712
1909.503909	0.089744	0.692445	1887.246460
1910.523356	1.089188	0.706995	489.045502
1910.524290	0.591508	0.706995	1041.513550
1910.525193	0.091608	0.706995	1124.235229
1910.526123	0.089685	0.706995	1207.642334
1910.527027	0.089711	0.706995	1288.740845
1910.527935	0.089692	0.706995	1370.181519
1910.528825	0.089722	0.706995	1450.033813
1910.529763	0.089648	0.706995	1534.124023
1910.530658	0.089641	0.706995	1614.352783
1910.531560	0.089681	0.706995	1695.245361
1910.532457	0.089663	0.706995	1775.673096
1910.533403	0.089689	0.706995	1860.518677
1911.529160	1.067695	0.692062	468.718231
1911.530075	0.640836	0.692062	1055.083374
1911.531025	0.091615	0.692062	1142.117554
1911.531916	0.089656	0.692062	1222.000854
1911.532804	0.089736	0.692062	1301.686768
1911.533743	0.089696	0.692062	1385.911377
1911.534654	0.089656	0.692062	1467.587769
1911.535552	0.089707	0.692062	1548.144653
1911.536481	0.089744	0.692062	1631.516479
1911.537380	0.089718	0.692062	1712.172974
1911.538284	0.089692	0.692062	1793.254883
1911.539169	0.089769	0.692062	1872.700684
1912.558552	1.076495	0.709964	482.269897
1912.559447	0.650468	0.709964	1064.438354
1912.560387	0.092256	0.709964	1151.158813
1912.561293	0.089630	0.709964	1232.363770
1912.562208	0.089744	0.709964	1314.479248
1912.563107	0.089740	0.709964	1395.155518
1912.564061	0.089784	0.709964	1480.809326
1912.564965	0.089696	0.709964	1561.894531
1912.565854	0.089733	0.709964	1641.666870
1912.566806	0.089733	0.709964	1727.092407
1912.567718	0.089711	0.709964	1808.908569
1912.568618	0.089692	0.709964	1889.631714
1913.565515	1.077418	0.697053	474.064026
1913.566493	0.533694	0.697053	996.016602
1913.567403	0.091168	0.697053	1078.979736
1913.568301	0.089681	0.697053	1159.513672
1913.569235	0.089791	0.697053	1243.378662
1913.570135	0.089857	0.697053	1324.250122
1913.571029	0.089634	0.697053	1404.382690
1913.571918	0.089736	0.697053	1484.158325
1913.572861	0.089817	0.697053	1568.855713
1913.573757	0.089729	0.697053	1649.252930
1913.574657	0.089751	0.697053	1730.028809
1913.575546	0.089714	0.697053	1809.784912
1914.593758	1.099050	0.717827	504.464081
1914.594671	0.606057	0.717827	1057.794189
1914.595589	0.092161	0.717827	1142.397705
1914.596526	0.089832	0.717827	1226.569824
1914.597435	0.089802	0.717827	1308.200073
1914.598326	0.089806	0.717827	1388.217163
1914.599269	0.089751	0.717827	1472.852295
1914.600171	0.089828	0.717827	1553.877075
1914.601078	0.089722	0.717827	1635.254639
1914.601969	0.089714	0.717827	1715.190186
1914.602908	0.089806	0.717827	1799.517944
1914.603819	0.089725	0.717827	1881.257690
1915.600599	1.084834	0.705988	487.090454
1915.601499	0.640005	0.705988	1063.094849
1915.602438	0.092677	0.705988	1150.118530
1915.603337	0.089747	0.705988	1230.801392
1915.604242	0.089674	0.705988	1311.956421
1915.605134	0.089689	0.705988	1391.958740
1915.606068	0.089802	0.705988	1475.833984
1915.606967	0.089777	0.705988	1556.543213
1915.607875	0.089722	0.705988	1638.010498
1915.608767	0.089740	0.705988	1718.058594
1915.609713	0.089755	0.705988	1802.966431
1915.610616	0.089729	0.705988	1883.991699
1916.627787	1.073635	0.716397	471.325867
1916.628687	0.635940	0.716397	1043.671875
1916.629671	0.091179	0.716397	1133.392212
1916.630585	0.089685	0.716397	1215.364380
1916.631482	0.089707	0.716397	1295.831543
1916.632401	0.089755	0.716397	1378.316040
1916.633302	0.089802	0.716397	1459.227905
1916.634206	0.089689	0.716397	1540.306519
1916.635094	0.089689	0.716397	1619.950073
1916.636042	0.089846	0.716397	1705.124268
1916.636948	0.089744	0.716397	1786.432007
1916.637836	0.089740	0.716397	1866.121094
1917.636569	1.083131	0.711982	480.910187
1917.637477	0.636171	0.711982	1058.553223
1917.638364	0.092684	0.711982	1140.764160
1917.639316	0.089648	0.711982	1226.109497
1917.640223	0.089700	0.711982	1307.467163
1917.641112	0.089729	0.711982	1387.236206
1917.642035	0.089722	0.711982	1470.049316
1917.642957	0.089784	0.711982	1552.830078
1917.643870	0.089623	0.711982	1634.655762
1917.644767	0.089678	0.711982	1715.096680
1917.645694	0.089813	0.711982	1798.353516
1917.646598	0.089681	0.711982	1879.425537
1918.663781	1.097406	0.724929	502.611969
1918.664674	0.632915	0.724929	1067.805054
1918.665621	0.091754	0.724929	1154.696289
1918.666525	0.089634	0.724929	1235.725220
1918.667429	0.089663	0.724929	1316.780640
1918.668319	0.089652	0.724929	1396.571045
1918.669272	0.089777	0.724929	1482.128174
1918.670178	0.089689	0.724929	1563.386108
1918.671083	0.089685	0.724929	1644.551025
1918.672014	0.089674	0.724929	1728.037598
1918.672915	0.089689	0.724929	1808.847168
1918.673810	0.089674	0.724929	1889.105469
1919.671238	1.065604	0.706665	462.472229
1919.672229	0.542205	0.706665	999.796997
1919.673127	0.091271	0.706665	1081.758179
1919.674027	0.089674	0.706665	1162.464844
1919.674914	0.089714	0.706665	1242.041504
1919.675851	0.089700	0.706665	1326.090088
1919.676764	0.089612	0.706665	1407.905640
1919.677660	0.089740	0.706665	1488.312622
1919.678548	0.089711	0.706665	1567.975708
1919.679487	0.089707	0.706665	1652.210571
1919.680382	0.089670	0.706665	1732.465576
1919.681300	0.089707	0.706665	1814.816650
1920.698616	1.111725	0.724776	540.298279
1920.699549	0.544764	0.724776	1048.563477
1920.700442	0.091362	0.724776	1130.150024
1920.701329	0.089670	0.724776	1209.687744
1920.702272	0.089762	0.724776	1294.333252
1920.703168	0.089645	0.724776	1374.655029
1920.704071	0.089656	0.724776	1455.614136
1920.704972	0.089718	0.724776	1536.450073
1920.705895	0.089773	0.724776	1619.310547
1920.706803	0.089659	0.724776	1700.721313
1920.707704	0.089692	0.724776	1781.534180
1920.708597	0.089714	0.724776	1861.649048
1921.706322	1.081198	0.704232	482.214081
1921.707233	0.632227	0.704232	1058.172485
1921.708122	0.092563	0.704232	1140.461426
1921.709078	0.089744	0.704232	1226.256348
1921.709984	0.089696	0.704232	1307.520996
1921.710883	0.089659	0.704232	1388.124878
1921.711822	0.089678	0.704232	1472.332275
1921.712721	0.089703	0.704232	1552.975586
1921.713622	0.089678	0.704232	1633.775269
1921.714507	0.089707	0.704232	1713.166016
1921.715441	0.089740	0.704232	1796.983154
1921.716339	0.089714	0.704232	1877.546631
1922.734155	1.066813	0.732007	467.263977
1922.735117	0.591888	0.732007	1036.660645
1922.736028	0.091509	0.732007	1120.025146
1922.736929	0.089623	0.732007	1200.775269
1922.737818	0.089652	0.732007	1280.475952
1922.738755	0.089832	0.732007	1364.648071
1922.739658	0.089707	0.732007	1445.653564
1922.740559	0.089703	0.732007	1526.476318
1922.741478	0.089773	0.732007	1608.977661
1922.742398	0.089802	0.732007	1691.595703
1922.743308	0.089703	0.732007	1773.225830
1922.744197	0.089762	0.732007	1853.024170
1923.740507	1.075001	0.711849	480.525543
1923.741407	0.645264	0.711849	1061.262817
1923.742354	0.092747	0.711849	1149.093872
1923.743262	0.089608	0.711849	1230.458130
1923.744169	0.089696	0.711849	1311.812500
1923.745058	0.089689	0.711849	1391.545776
1923.745997	0.089744	0.711849	1475.815063
1923.746911	0.089722	0.711849	1557.820679
1923.747805	0.089733	0.711849	1638.041748
1923.748742	0.089806	0.711849	1722.189941
1923.749649	0.089780	0.711849	1803.620605
1923.750545	0.089744	0.711849	1884.030884
1924.770012	1.084530	0.722166	495.630219
1924.770917	0.626188	0.722166	1062.330078
1924.771808	0.092399	0.722166	1144.657349
1924.772772	0.089674	0.722166	1231.103149
1924.773666	0.089623	0.722166	1311.225952
1924.774557	0.089645	0.722166	1391.099487
1924.775467	0.089692	0.722166	1472.719604
1924.776397	0.089619	0.722166	1556.065430
1924.777297	0.089700	0.722166	1636.795166
1924.778185	0.089652	0.722166	1716.406250
1924.779105	0.089634	0.722166	1798.869385
1924.780020	0.089659	0.722166	1880.907715
1925.775703	1.087050	0.711245	485.911163
1925.776604	0.640532	0.711245	1063.030640
1925.777493	0.092717	0.711245	1145.456299
1925.778455	0.089744	0.711245	1231.789673
1925.779371	0.089700	0.711245	1313.954590
1925.780264	0.089659	0.711245	1394.020508
1925.781177	0.089769	0.711245	1475.979858
1925.782095	0.089703	0.711245	1558.327515
1925.782997	0.089703	0.711245	1639.239990
1925.783894	0.089729	0.711245	1719.726929
1925.784825	0.089740	0.711245	1803.274902
1925.785728	0.089744	0.711245	1884.313477
1926.806361	1.090459	0.719793	493.977936
1926.807266	0.629238	0.719793	1063.438599
1926.808206	0.091608	0.719793	1149.549805
1926.809111	0.089612	0.719793	1230.648560
1926.810021	0.089689	0.719793	1312.265259
1926.810907	0.089645	0.719793	1391.690552
1926.811854	0.089696	0.719793	1476.632690
1926.812764	0.089670	0.719793	1558.232788
1926.813657	0.089747	0.719793	1638.377197
1926.814596	0.089839	0.719793	1722.735840
1926.815490	0.089813	0.719793	1803.028809
1926.816388	0.089689	0.719793	1883.569336
1927.809742	1.068816	0.707374	469.210144
1927.810636	0.660165	0.707374	1059.397461
1927.811579	0.091875	0.707374	1146.035645
1927.812492	0.089648	0.707374	1227.884644
1927.813387	0.089645	0.707374	1308.116699
1927.814295	0.089663	0.707374	1389.530762
1927.815226	0.089740	0.707374	1473.078735
1927.816136	0.089623	0.707374	1554.635498
1927.817029	0.089663	0.707374	1634.704590
1927.817963	0.089762	0.707374	1718.542236
1927.818867	0.089696	0.707374	1799.627441
1927.819761	0.089703	0.707374	1879.822266
1928.842454	1.076437	0.724365	477.937927
1928.843357	0.649398	0.724365	1064.344482
1928.844296	0.092758	0.724365	1151.443848
1928.845198	0.089626	0.724365	1232.286865
1928.846106	0.089656	0.724365	1313.694336
1928.847003	0.089685	0.724365	1394.141846
1928.847927	0.089707	0.724365	1477.031128
1928.848829	0.089729	0.724365	1557.966675
1928.849730	0.089681	0.724365	1638.769653
1928.850619	0.089623	0.724365	1718.444336
1928.851562	0.089685	0.724365	1803.017334
1928.852470	0.089700	0.724365	1884.464722
1929.845196	1.084816	0.721920	480.573364
1929.846178	0.531354	0.721920	1002.362732
1929.847104	0.090835	0.721920	1086.475952
1929.847995	0.089645	0.721920	1166.349487
1929.848953	0.089795	0.721920	1252.373047
1929.849854	0.089733	0.721920	1333.222168
1929.850746	0.089751	0.721920	1413.280029
1929.851653	0.089711	0.721920	1494.647583
1929.852584	0.089696	0.721920	1578.154541
1929.853476	0.089744	0.721920	1658.205933
1929.854371	0.089835	0.721920	1738.608398
1929.855305	0.089795	0.721920	1822.476807
1930.878942	1.083102	0.736386	480.897186
1930.879848	0.634596	0.736386	1055.841187
1930.880739	0.092450	0.736386	1138.214111
1930.881677	0.089700	0.736386	1222.352417
1930.882581	0.089659	0.736386	1303.404541
1930.883501	0.089736	0.736386	1385.961914
1930.884392	0.089689	0.736386	1465.874512
1930.885333	0.089718	0.736386	1550.299194
1930.886232	0.089659	0.736386	1630.903076
1930.887119	0.089689	0.736386	1710.457031
1930.888064	0.089722	0.736386	1795.244019
1930.888966	0.089733	0.736386	1876.182861
1931.878870	1.084438	0.731693	487.997314
1931.879780	0.624800	0.731693	1056.565186
1931.880718	0.092450	0.731693	1143.283203
1931.881626	0.089689	0.731693	1224.720581
1931.882531	0.089626	0.731693	1305.832520
1931.883418	0.089670	0.731693	1385.370117
1931.884369	0.089755	0.731693	1470.726807
1931.885272	0.089758	0.731693	1551.778564
1931.886168	0.089659	0.731693	1632.113403
1931.887058	0.089630	0.731693	1711.884277
1931.888014	0.089773	0.731693	1797.707275
1931.888926	0.089696	0.731693	1879.510010
1932.915148	1.075133	0.743041	474.133698
1932.916054	0.644524	0.743041	1058.072388
1932.916943	0.092772	0.743041	1140.546875
1932.917902	0.089700	0.743041	1226.568848
1932.918811	0.089663	0.743041	1308.072632
1932.919704	0.089696	0.743041	1388.171143
1932.920633	0.089744	0.743041	1471.542969
1932.921541	0.089736	0.743041	1553.023560
1932.922440	0.089696	0.743041	1633.660278
1932.923330	0.089714	0.743041	1713.506104
1932.924272	0.089755	0.743041	1798.054932
1932.925175	0.089729	0.743041	1879.080200
1933.914581	1.078989	0.733824	477.992249
1933.915508	0.611140	0.733824	1044.519165
1933.916412	0.091992	0.733824	1127.680054
1933.917343	0.089744	0.733824	1211.231445
1933.918241	0.089740	0.733824	1291.817993
1933.919140	0.089692	0.733824	1372.451416
1933.920026	0.089678	0.733824	1451.905884
1933.920981	0.089718	0.733824	1537.586548
1933.921883	0.089714	0.733824	1618.508911
1933.922780	0.089637	0.733824	1698.913696
1933.923695	0.089678	0.733824	1780.968872
1933.924617	0.089791	0.733824	1863.756470
1934.950866	1.076620	0.731516	472.636108
1934.951799	0.618149	0.731516	1049.369507
1934.952689	0.092318	0.731516	1131.532593
1934.953616	0.089608	0.731516	1214.599365
1934.954529	0.089744	0.731516	1296.535278
1934.955440	0.089692	0.731516	1378.244995
1934.956335	0.089667	0.731516	1458.496704
1934.957265	0.089718	0.731516	1541.934448
1934.958177	0.089744	0.731516	1623.780640
1934.959075	0.089652	0.731516	1704.288208
1934.959965	0.089678	0.731516	1784.101440
1934.960915	0.089773	0.731516	1869.385742
1935.949380	1.064260	0.730682	461.888947
1935.950332	0.625792	0.730682	1057.643188
1935.951251	0.091373	0.730682	1141.615234
1935.952150	0.089619	0.730682	1222.182861
1935.953039	0.089659	0.730682	1301.890137
1935.953985	0.089784	0.730682	1386.825684
1935.954886	0.089703	0.730682	1467.648437
1935.955788	0.089685	0.730682	1548.544312
1935.956674	0.089740	0.730682	1628.053955
1935.957604	0.089711	0.730682	1711.484863
1935.958519	0.089648	0.730682	1793.513184
1935.959413	0.089736	0.730682	1873.737427
1936.984785	1.081300	0.729582	481.178497
1936.985692	0.638514	0.729582	1060.311035
1936.986581	0.092699	0.729582	1142.720459
1936.987536	0.089736	0.729582	1228.418701
1936.988444	0.089663	0.729582	1309.832764
1936.989335	0.089586	0.729582	1389.654053
1936.990280	0.089703	0.729582	1474.423706
1936.991179	0.089681	0.729582	1555.047241
1936.992074	0.089652	0.729582	1635.285889
1936.992968	0.089685	0.729582	1715.464355
1936.993910	0.089744	0.729582	1800.002930
1936.994809	0.089637	0.729582	1880.587036
1937.985109	1.080897	0.733775	482.080170
1937.986007	0.643722	0.733775	1060.142456
1937.986953	0.092201	0.733775	1147.364502
1937.987862	0.089575	0.733775	1228.788330
1937.988773	0.089641	0.733775	1310.451416
1937.989661	0.089648	0.733775	1390.059204
1937.990611	0.089659	0.733775	1475.235718
1937.991509	0.089608	0.733775	1555.703857
1937.992398	0.089689	0.733775	1635.437134
1937.993318	0.089685	0.733775	1717.947388
1937.994232	0.089696	0.733775	1799.929565
1937.995142	0.089561	0.733775	1881.429687
1939.018079	1.088881	0.733647	495.440704
1939.018980	0.629432	0.733647	1062.559326
1939.019913	0.092534	0.733647	1148.893677
1939.020816	0.089692	0.733647	1229.885864
1939.021730	0.089626	0.733647	1311.804443
1939.022629	0.089685	0.733647	1392.431274
1939.023572	0.089670	0.733647	1476.990479
1939.024481	0.089696	0.733647	1558.524170
1939.025389	0.089659	0.733647	1639.934937
1939.026278	0.089630	0.733647	1719.616089
1939.027227	0.089718	0.733647	1804.758545
1939.028134	0.089619	0.733647	1886.043091
1940.020951	1.087738	0.746896	487.306641
1940.021855	0.638306	0.746896	1064.334961
1940.022743	0.092743	0.746896	1146.690674
1940.023704	0.089718	0.746896	1232.909668
1940.024611	0.089663	0.746896	1314.234131
1940.025511	0.089714	0.746896	1394.977051
1940.026425	0.089740	0.746896	1476.999390
1940.027336	0.089733	0.746896	1558.745850
1940.028241	0.089674	0.746896	1639.900879
1940.029128	0.089674	0.746896	1719.441772
1940.030057	0.089795	0.746896	1802.861206
1940.030962	0.089773	0.746896	1884.105713
1941.052103	1.065524	0.735580	462.437256
1941.053045	0.640529	0.735580	1065.815186
1941.053955	0.091897	0.735580	1149.441406
1941.054869	0.089652	0.735580	1231.383423
1941.055762	0.089681	0.735580	1311.468872
1941.056699	0.089747	0.735580	1395.562134
1941.057605	0.089725	0.735580	1476.853271
1941.058503	0.089740	0.735580	1557.439819
1941.059392	0.089689	0.735580	1637.173096
1941.060334	0.089747	0.735580	1721.715088
1941.061242	0.089700	0.735580	1803.162476
1941.062144	0.089707	0.735580	1884.078247
1942.057692	1.085354	0.748277	480.811798
1942.058600	0.635478	0.748277	1057.826294
1942.059491	0.092399	0.748277	1140.153564
1942.060412	0.089663	0.748277	1222.733276
1942.061344	0.089626	0.748277	1306.265137
1942.062243	0.089674	0.748277	1386.882080
1942.063135	0.089736	0.748277	1466.926880
1942.064074	0.089685	0.748277	1551.141113
1942.064979	0.089659	0.748277	1632.282959
1942.065870	0.089678	0.748277	1712.185791
1942.066803	0.089711	0.748277	1795.885864
1942.067716	0.089740	0.748277	1877.818481
1943.086806	1.076261	0.733401	474.631134
1943.087723	0.633431	0.733401	1055.487671
1943.088619	0.092424	0.733401	1138.299805
1943.089508	0.089659	0.733401	1218.007080
1943.090437	0.089736	0.733401	1301.372070
1943.091335	0.089593	0.733401	1381.827026
1943.092239	0.089612	0.733401	1462.836060
1943.093132	0.089707	0.733401	1542.944458
1943.094065	0.089637	0.733401	1626.576172
1943.094982	0.089626	0.733401	1708.763672
1943.095899	0.089667	0.733401	1790.988037
1943.096789	0.089626	0.733401	1870.755615
1944.095049	1.063022	0.745905	461.351776
1944.095948	0.654034	0.745905	1049.328735
1944.096897	0.091970	0.745905	1136.608521
1944.097809	0.089630	0.745905	1218.351196
1944.098701	0.089714	0.745905	1298.376465
1944.099629	0.089725	0.745905	1381.641602
1944.100531	0.089722	0.745905	1462.570557
1944.101431	0.089696	0.745905	1543.296997
1944.102323	0.089703	0.745905	1623.312378
1944.103268	0.089791	0.745905	1708.165161
1944.104171	0.089722	0.745905	1789.183838
1944.105073	0.089630	0.745905	1870.030273
1945.120588	1.076488	0.745377	475.807709
1945.121495	0.640283	0.745377	1056.544556
1945.122380	0.092798	0.745377	1138.670654
1945.123330	0.089670	0.745377	1223.857544
1945.124236	0.089670	0.745377	1305.098877
1945.125131	0.089637	0.745377	1385.324341
1945.126056	0.089707	0.745377	1468.303345
1945.126958	0.089758	0.745377	1549.265381
1945.127865	0.089634	0.745377	1630.563232
1945.128756	0.089626	0.745377	1710.420410
1945.129691	0.089751	0.745377	1794.337524
1945.130594	0.089744	0.745377	1875.376099
1946.131150	1.066022	0.739516	469.049530
1946.132048	0.655671	0.739516	1057.842407
1946.132987	0.092875	0.739516	1145.051758
1946.133903	0.089601	0.739516	1227.126099
1946.134808	0.089604	0.739516	1308.218140
1946.135694	0.089626	0.739516	1387.627197
1946.136648	0.089799	0.739516	1473.295044
1946.137557	0.089667	0.739516	1554.802124
1946.138449	0.089681	0.739516	1634.797974
1946.139380	0.089689	0.739516	1718.298218
1946.140281	0.089685	0.739516	1799.104492
1946.141182	0.089678	0.739516	1879.904175
1947.157020	1.157120	0.752032	597.074097
1947.157932	0.524788	0.752032	1075.680420
1947.158858	0.090959	0.752032	1159.908936
1947.159751	0.089674	0.752032	1239.987915
1947.160693	0.089762	0.752032	1324.543701
1947.161597	0.089791	0.752032	1405.714966
1947.162493	0.089769	0.752032	1486.148193
1947.163420	0.089832	0.752032	1569.421997
1947.164329	0.089758	0.752032	1651.012329
1947.165227	0.089784	0.752032	1731.638306
1947.166135	0.089751	0.752032	1813.132202
1947.167061	0.089755	0.752032	1896.244995
1948.166621	1.082095	0.738307	479.367950
1948.167534	0.641316	0.738307	1064.889404
1948.168424	0.092754	0.738307	1147.440430
1948.169377	0.089637	0.738307	1232.864868
1948.170283	0.089736	0.738307	1314.166016
1948.171181	0.089718	0.738307	1394.732788
1948.172075	0.089733	0.738307	1474.953857
1948.173014	0.089718	0.738307	1559.199097
1948.173923	0.089711	0.738307	1640.746094
1948.174821	0.089780	0.738307	1721.368774
1948.175748	0.089755	0.738307	1804.571289
1948.176658	0.089835	0.738307	1886.321289
1949.191366	1.062228	0.754110	459.944672
1949.192299	0.639979	0.754110	1057.045288
1949.193205	0.092000	0.754110	1140.396851
1949.194101	0.089608	0.754110	1220.685791
1949.194993	0.089733	0.754110	1300.727295
1949.195953	0.089810	0.754110	1386.944458
1949.196856	0.089736	0.754110	1467.976318
1949.197759	0.089747	0.754110	1549.018188
1949.198649	0.089652	0.754110	1628.808594
1949.199585	0.089762	0.754110	1712.825806
1949.200493	0.089652	0.754110	1794.229858
1949.201394	0.089718	0.754110	1875.065796
1950.201928	1.080121	0.747045	475.253143
1950.202910	0.539363	0.747045	1004.907349
1950.203813	0.091187	0.747045	1087.248779
1950.204712	0.089729	0.747045	1167.915161
1950.205653	0.089714	0.747045	1252.336426
1950.206566	0.089795	0.747045	1334.319214
1950.207470	0.089711	0.747045	1415.417725
1950.208362	0.089645	0.747045	1495.380859
1950.209314	0.089747	0.747045	1580.820312
1950.210212	0.089689	0.747045	1661.360840
1950.211112	0.089714	0.747045	1742.103760
1950.212020	0.089744	0.747045	1823.590942
1951.226835	1.078869	0.753099	482.254211
1951.227745	0.628744	0.753099	1054.411133
1951.228675	0.092585	0.753099	1140.515625
1951.229593	0.089740	0.753099	1222.896973
1951.230503	0.089725	0.753099	1304.546997
1951.231394	0.089729	0.753099	1384.495483
1951.232332	0.089762	0.753099	1468.692139
1951.233227	0.089751	0.753099	1549.019287
1951.234132	0.089733	0.753099	1630.227295
1951.235019	0.089769	0.753099	1709.852661
1951.235972	0.089780	0.753099	1795.413330
1951.236878	0.089718	0.753099	1876.697876
1952.237149	1.086299	0.742956	491.007080
1952.238049	0.635219	0.742956	1062.703735
1952.238956	0.092673	0.742956	1146.758423
1952.239893	0.089740	0.742956	1230.844727
1952.240792	0.089718	0.742956	1311.501221
1952.241683	0.089788	0.742956	1391.501953
1952.242612	0.089769	0.742956	1474.897583
1952.243520	0.089755	0.742956	1556.394775
1952.244424	0.089722	0.742956	1637.503174
1952.245319	0.089689	0.742956	1717.774536
1952.246270	0.089824	0.742956	1803.197388
1952.247170	0.089689	0.742956	1883.917236
1953.261641	1.070570	0.764959	469.980286
1953.262538	0.638295	0.764959	1042.530518
1953.263527	0.091025	0.764959	1132.554687
1953.264433	0.089626	0.764959	1213.756226
1953.265320	0.089656	0.764959	1293.280884
1953.266266	0.089674	0.764959	1378.112549
1953.267163	0.089630	0.764959	1458.510742
1953.268051	0.089601	0.764959	1538.076294
1953.268978	0.089692	0.764959	1621.221191
1953.269887	0.089725	0.764959	1702.781494
1953.270794	0.089652	0.764959	1784.095947
1953.271687	0.089659	0.764959	1864.161865
1954.272233	1.106210	0.754243	507.750275
1954.273163	0.575753	0.754243	1043.200684
1954.274059	0.091630	0.754243	1125.300781
1954.274971	0.089744	0.754243	1207.146973
1954.275898	0.089751	0.754243	1290.346191
1954.276809	0.089714	0.754243	1372.075928
1954.277704	0.089784	0.754243	1452.432495
1954.278647	0.089824	0.754243	1537.136719
1954.279547	0.089806	0.754243	1617.962036
1954.280445	0.089744	0.754243	1698.551880
1954.281355	0.089766	0.754243	1780.238647
1954.282249	0.089696	0.754243	1860.426880
1955.297230	1.071394	0.766518	470.342010
1955.298128	0.642393	0.766518	1047.210571
1955.299086	0.091692	0.766518	1135.051392
1955.300000	0.089615	0.766518	1216.959961
1955.300895	0.089711	0.766518	1297.250977
1955.301839	0.089762	0.766518	1381.986328
1955.302731	0.089722	0.766518	1462.018066
1955.303635	0.089758	0.766518	1543.159546
1955.304523	0.089711	0.766518	1622.822632
1955.305462	0.089736	0.766518	1707.085083
1955.306363	0.089700	0.766518	1787.904541
1955.307267	0.089681	0.766518	1868.976562
1956.307656	1.066289	0.762296	468.100891
1956.308631	0.549474	0.762296	1003.837952
1956.309538	0.091165	0.762296	1086.524170
1956.310442	0.089604	0.762296	1167.526611
1956.311328	0.089670	0.762296	1246.974609
1956.312269	0.089762	0.762296	1331.440674
1956.313176	0.089593	0.762296	1412.702026
1956.314065	0.089674	0.762296	1492.422241
1956.315001	0.089681	0.762296	1576.364014
1956.315910	0.089714	0.762296	1657.914307
1956.316810	0.089696	0.762296	1738.640747
1956.317700	0.089637	0.762296	1818.418091
1957.332697	1.085625	0.758542	489.616913
1957.333604	0.631703	0.758542	1062.571411
1957.334492	0.092618	0.758542	1144.816528
1957.335429	0.089747	0.758542	1228.909790
1957.336348	0.089634	0.758542	1311.283203
1957.337248	0.089667	0.758542	1391.983276
1957.338180	0.089747	0.758542	1475.627808
1957.339087	0.089751	0.758542	1557.031982
1957.339989	0.089652	0.758542	1637.898193
1957.340875	0.089689	0.758542	1717.362427
1957.341828	0.089762	0.758542	1802.905518
1957.342726	0.089692	0.758542	1883.449219
1958.342484	1.083706	0.762123	482.249176
1958.343389	0.641126	0.762123	1062.467773
1958.344278	0.092677	0.762123	1144.857666
1958.345228	0.089681	0.762123	1230.055054
1958.346133	0.089689	0.762123	1311.223389
1958.347031	0.089652	0.762123	1391.730957
1958.347961	0.089751	0.762123	1475.199341
1958.348873	0.089769	0.762123	1557.068970
1958.349773	0.089634	0.762123	1637.739380
1958.350669	0.089623	0.762123	1718.041382
1958.351607	0.089685	0.762123	1802.166016
1958.352513	0.089729	0.762123	1883.460449
1959.368662	1.084739	0.755142	481.623993
1959.369587	0.613059	0.755142	1048.703613
1959.370477	0.092146	0.755142	1130.713501
1959.371415	0.089601	0.755142	1214.759033
1959.372320	0.089744	0.755142	1295.977051
1959.373218	0.089681	0.755142	1376.510986
1959.374109	0.089623	0.755142	1456.364868
1959.375043	0.089663	0.755142	1540.110229
1959.375951	0.089663	0.755142	1621.524292
1959.376858	0.089685	0.755142	1702.868652
1959.377760	0.089678	0.755142	1783.757935
1959.378705	0.089762	0.755142	1868.583008
1960.375917	1.105444	0.762844	512.926147
1960.376824	0.605032	0.762844	1061.689941
1960.377717	0.092065	0.762844	1143.904419
1960.378665	0.089689	0.762844	1228.929321
1960.379577	0.089670	0.762844	1310.708740
1960.380469	0.089674	0.762844	1390.697998
1960.381358	0.089703	0.762844	1470.444336
1960.382312	0.089740	0.762844	1556.056274
1960.383217	0.089652	0.762844	1637.191406
1960.384107	0.089590	0.762844	1716.926392
1960.385033	0.089703	0.762844	1799.991699
1960.385943	0.089579	0.762844	1881.508423
1961.403978	1.064073	0.744688	460.743805
1961.404915	0.618303	0.744688	1040.093872
1961.405830	0.091619	0.744688	1123.924927
1961.406733	0.089692	0.744688	1204.917114
1961.407623	0.089769	0.744688	1284.811768
1961.408570	0.089886	0.744688	1369.934204
1961.409477	0.089788	0.744688	1451.371582
1961.410380	0.089744	0.744688	1532.410156
1961.411274	0.089751	0.744688	1612.647583
1961.412224	0.089751	0.744688	1697.911011
1961.413123	0.089689	0.744688	1778.541138
1961.414008	0.089689	0.744688	1857.915649
1962.410057	1.072141	0.762054	470.669983
1962.411014	0.615106	0.762054	1059.326660
1962.411925	0.091304	0.762054	1142.504395
1962.412831	0.089531	0.762054	1223.619751
1962.413720	0.089634	0.762054	1303.304199
1962.414663	0.089612	0.762054	1387.808105
1962.415560	0.089707	0.762054	1468.275269
1962.416463	0.089718	0.762054	1549.290649
1962.417375	0.089685	0.762054	1631.083374
1962.418271	0.089703	0.762054	1711.457642
1962.419228	0.089615	0.762054	1797.219604
1962.420130	0.089652	0.762054	1878.085815
1963.441156	1.138836	0.756685	566.001282
1963.442082	0.535595	0.756685	1061.961792
1963.442981	0.091293	0.756685	1144.033936
1963.443868	0.089641	0.756685	1223.545654
1963.444801	0.089784	0.756685	1307.314087
1963.445706	0.089714	0.756685	1388.505615
1963.446606	0.089663	0.756685	1469.202393
1963.447498	0.089766	0.756685	1549.273315
1963.448433	0.089769	0.756685	1633.207642
1963.449336	0.089711	0.756685	1714.216431
1963.450267	0.089696	0.756685	1797.723389
1963.451154	0.089740	0.756685	1877.322754
1964.443722	1.073789	0.770953	472.467163
1964.444709	0.519690	0.770953	985.401123
1964.445620	0.091036	0.770953	1068.335205
1964.446517	0.089736	0.770953	1148.828735
1964.447439	0.089784	0.770953	1231.609497
1964.448333	0.089799	0.770953	1311.889404
1964.449232	0.089747	0.770953	1392.572266
1964.450117	0.089755	0.770953	1472.005127
1964.451048	0.089769	0.770953	1555.580322
1964.451943	0.089751	0.770953	1635.907471
1964.452848	0.089755	0.770953	1717.135376
1964.453735	0.089788	0.770953	1796.776978
1965.477231	1.084523	0.757788	514.063721
1965.478163	0.548009	0.757788	1024.808105
1965.479069	0.091311	0.757788	1107.535889
1965.479968	0.089641	0.757788	1188.123291
1965.480913	0.089806	0.757788	1272.989868
1965.481818	0.089696	0.757788	1354.164795
1965.482717	0.089725	0.757788	1434.827881
1965.483602	0.089696	0.757788	1514.208862
1965.484537	0.089762	0.757788	1598.136230
1965.485443	0.089703	0.757788	1679.407471
1965.486342	0.089714	0.757788	1760.060669
1965.487263	0.089670	0.757788	1842.647095
1966.477826	1.114739	0.763561	549.566162
1966.478753	0.544471	0.763561	1054.291260
1966.479647	0.091208	0.763561	1135.831665
1966.480579	0.089670	0.763561	1219.404541
1966.481485	0.089799	0.763561	1300.762085
1966.482384	0.089685	0.763561	1381.388916
1966.483275	0.089692	0.763561	1461.304810
1966.484223	0.089751	0.763561	1546.388672
1966.485119	0.089692	0.763561	1626.753052
1966.486021	0.089663	0.763561	1707.629150
1966.486907	0.089703	0.763561	1787.106323
1966.487852	0.089740	0.763561	1871.910645
1967.513718	1.090042	0.759782	528.670166
1967.514660	0.520181	0.759782	1018.680420
1967.515566	0.091069	0.759782	1101.189209
1967.516460	0.089747	0.759782	1181.423340
1967.517394	0.089791	0.759782	1265.288330
1967.518295	0.089835	0.759782	1346.229858
1967.519189	0.089755	0.759782	1426.470459
1967.520080	0.089747	0.759782	1506.435303
1967.521012	0.089784	0.759782	1590.113892
1967.521920	0.089678	0.759782	1671.541260
1967.522822	0.089791	0.759782	1752.532959
1967.523738	0.089692	0.759782	1834.691162
1968.512219	1.075100	0.767094	481.644897
1968.513123	0.634519	0.767094	1055.250122
1968.514014	0.092578	0.767094	1137.737183
1968.514972	0.089572	0.767094	1223.546753
1968.515878	0.089681	0.767094	1304.798096
1968.516804	0.089692	0.767094	1387.853271
1968.517694	0.089707	0.767094	1467.692505
1968.518640	0.089674	0.767094	1552.524170
1968.519534	0.089700	0.767094	1632.715698
1968.520421	0.089667	0.767094	1712.250122
1968.521351	0.089663	0.767094	1795.636841
1968.522262	0.089604	0.767094	1877.266479
1969.550024	1.063129	0.760439	462.460999
1969.550924	0.650750	0.760439	1048.135498
1969.551891	0.091750	0.760439	1136.858276
1969.552788	0.089593	0.760439	1217.223633
1969.553679	0.089700	0.760439	1297.146118
1969.554620	0.089729	0.760439	1381.581055
1969.555522	0.089590	0.760439	1462.391113
1969.556416	0.089685	0.760439	1542.569580
1969.557345	0.089663	0.760439	1625.866577
1969.558249	0.089663	0.760439	1706.921997
1969.559155	0.089755	0.760439	1788.239746
1969.560041	0.089678	0.760439	1867.694214
1970.548184	1.081985	0.758457	485.811218
1970.549085	0.633981	0.758457	1057.027832
1970.550002	0.092402	0.758457	1141.760742
1970.550939	0.089659	0.758457	1225.771606
1970.551846	0.089659	0.758457	1307.092773
1970.552745	0.089637	0.758457	1387.676880
1970.553670	0.089780	0.758457	1470.723633
1970.554573	0.089736	0.758457	1551.755493
1970.555474	0.089637	0.758457	1632.518799
1970.556359	0.089656	0.758457	1711.864136
1970.557313	0.089751	0.758457	1797.486572
1970.558217	0.089725	0.758457	1878.598267
1971.585482	1.066545	0.764842	467.146881
1971.586377	0.651423	0.764842	1050.170776
1971.587327	0.091732	0.764842	1137.316406
1971.588244	0.089601	0.764842	1219.480347
1971.589144	0.089700	0.764842	1300.210083
1971.590081	0.089740	0.764842	1384.296387
1971.590980	0.089722	0.764842	1464.956177
1971.591883	0.089604	0.764842	1545.869019
1971.592769	0.089623	0.764842	1625.274780
1971.593707	0.089747	0.764842	1709.457764
1971.594603	0.089634	0.764842	1789.769653
1971.595498	0.089678	0.764842	1870.031250
1972.584664	1.085995	0.766038	488.697693
1972.585568	0.633860	0.766038	1061.707031
1972.586487	0.092655	0.766038	1146.857056
1972.587411	0.089648	0.766038	1229.692261
1972.588326	0.089656	0.766038	1311.727295
1972.589223	0.089604	0.766038	1392.102539
1972.590163	0.089744	0.766038	1476.461548
1972.591064	0.089648	0.766038	1557.234741
1972.591968	0.089696	0.766038	1638.319946
1972.592855	0.089689	0.766038	1717.873779
1972.593787	0.089623	0.766038	1801.402222
1972.594702	0.089652	0.766038	1883.433838
1973.620449	1.094293	0.763412	494.620483
1973.621377	0.608881	0.763412	1059.661743
1973.622266	0.092047	0.763412	1141.491577
1973.623195	0.089652	0.763412	1224.778320
1973.624104	0.089755	0.763412	1306.365234
1973.625000	0.089667	0.763412	1386.706665
1973.625895	0.089645	0.763412	1466.938721
1973.626843	0.089648	0.763412	1551.925415
1973.627746	0.089674	0.763412	1632.901123
1973.628654	0.089674	0.763412	1714.325195
1973.629540	0.089670	0.763412	1793.773193
1973.630484	0.089656	0.763412	1878.408203
1974.619473	1.073624	0.770449	471.321045
1974.620372	0.634182	0.770449	1041.450806
1974.621336	0.091307	0.770449	1129.471069
1974.622240	0.089531	0.770449	1210.407349
1974.623135	0.089652	0.770449	1290.645996
1974.624062	0.089659	0.770449	1373.760254
1974.624977	0.089542	0.770449	1455.691406
1974.625895	0.089619	0.770449	1537.961792
1974.626787	0.089615	0.770449	1617.898804
1974.627741	0.089601	0.770449	1703.378052
1974.628643	0.089568	0.770449	1784.168213
1974.629560	0.089597	0.770449	1866.328857
1975.653893	1.105404	0.766727	548.280396
1975.654812	0.541970	0.766727	1046.351074
1975.655732	0.090875	0.766727	1129.956299
1975.656629	0.089604	0.766727	1210.331543
1975.657573	0.089663	0.766727	1294.973511
1975.658477	0.089619	0.766727	1375.989258
1975.659398	0.089590	0.766727	1458.501465
1975.660284	0.089648	0.766727	1537.929932
1975.661238	0.089626	0.766727	1623.433594
1975.662135	0.089645	0.766727	1703.844971
1975.663024	0.089670	0.766727	1783.562012
1975.663961	0.089707	0.766727	1867.617554
1976.655176	1.068442	0.769305	465.840912
1976.656115	0.638265	0.769305	1065.172119
1976.657037	0.091461	0.769305	1149.499268
1976.657950	0.089612	0.769305	1231.314819
1976.658849	0.089663	0.769305	1311.921875
1976.659784	0.089685	0.769305	1395.777344
1976.660684	0.089703	0.769305	1476.510376
1976.661586	0.089670	0.769305	1557.393066
1976.662473	0.089652	0.769305	1636.914429
1976.663416	0.089685	0.769305	1721.487427
1976.664318	0.089648	0.769305	1802.350342
1976.665215	0.089641	0.769305	1882.758423
1977.687509	1.084065	0.763444	486.745117
1977.688410	0.638064	0.763444	1061.640747
1977.689332	0.092589	0.763444	1147.007935
1977.690259	0.089630	0.763444	1230.095093
1977.691164	0.089597	0.763444	1311.180542
1977.692059	0.089634	0.763444	1391.402832
1977.692996	0.089641	0.763444	1475.396606
1977.693899	0.089689	0.763444	1556.385498
1977.694794	0.089652	0.763444	1636.624146
1977.695689	0.089681	0.763444	1716.889038
1977.696626	0.089681	0.763444	1800.920532
1977.697537	0.089597	0.763444	1882.543579
1978.691783	1.065458	0.767629	462.408630
1978.692729	0.631230	0.767629	1059.552734
1978.693639	0.091571	0.767629	1142.882324
1978.694538	0.089590	0.767629	1223.423584
1978.695428	0.089601	0.767629	1303.168335
1978.696380	0.089711	0.767629	1388.572876
1978.697281	0.089663	0.767629	1469.359375
1978.698182	0.089674	0.767629	1550.155762
1978.699067	0.089718	0.767629	1629.556152
1978.699989	0.089722	0.767629	1712.279541
1978.700896	0.089572	0.767629	1793.520874
1978.701793	0.089725	0.767629	1874.004517
1979.721678	1.072273	0.758948	471.800079
1979.722628	0.617208	0.758948	1058.147949
1979.723531	0.091663	0.758948	1140.919312
1979.724427	0.089528	0.758948	1221.135986
1979.725318	0.089612	0.758948	1300.980103
1979.726250	0.089667	0.758948	1384.549561
1979.727152	0.089674	0.758948	1465.435547
1979.728056	0.089729	0.758948	1546.550537
1979.728943	0.089648	0.758948	1626.068726
1979.729889	0.089766	0.758948	1710.987061
1979.730801	0.089733	0.758948	1792.823242
1979.731695	0.089670	0.758948	1872.988647
1980.727515	1.092081	0.771062	494.712830
1980.728431	0.608423	0.771062	1052.028198
1980.729321	0.092186	0.771062	1134.073975
1980.730276	0.089601	0.771062	1219.642822
1980.731188	0.089645	0.771062	1301.398804
1980.732114	0.089700	0.771062	1384.460693
1980.732999	0.089718	0.771062	1463.861084
1980.733951	0.089689	0.771062	1549.244751
1980.734841	0.089601	0.771062	1628.989502
1980.735732	0.089663	0.771062	1708.879272
1980.736662	0.089714	0.771062	1792.313599
1980.737577	0.089718	0.771062	1874.405518
1981.756758	1.081073	0.771537	479.996368
1981.757668	0.632278	0.771537	1055.369263
1981.758554	0.092479	0.771537	1137.305908
1981.759504	0.089681	0.771537	1222.503296
1981.760409	0.089689	0.771537	1303.671631
1981.761304	0.089663	0.771537	1383.920044
1981.762207	0.089685	0.771537	1464.905640
1981.763133	0.089703	0.771537	1547.970947
1981.764041	0.089586	0.771537	1629.315186
1981.764937	0.089641	0.771537	1709.633667
1981.765865	0.089740	0.771537	1792.912354
1981.766773	0.089714	0.771537	1874.373047
1982.762844	1.086665	0.766751	485.739258
1982.763770	0.610638	0.766751	1051.190430
1982.764660	0.092073	0.766751	1133.135132
1982.765609	0.089524	0.766751	1218.093384
1982.766503	0.089784	0.766751	1298.360229
1982.767405	0.089634	0.766751	1379.209961
1982.768296	0.089674	0.766751	1459.109619
1982.769224	0.089711	0.766751	1542.361084
1982.770134	0.089670	0.766751	1623.961182
1982.771038	0.089652	0.766751	1705.006714
1982.771925	0.089623	0.766751	1784.502197
1982.772867	0.089703	0.766751	1869.002808
1983.791561	1.066458	0.768854	466.041931
1983.792523	0.568169	0.768854	1012.620422
1983.793432	0.091359	0.768854	1095.665405
1983.794338	0.089678	0.768854	1176.913452
1983.795228	0.089656	0.768854	1256.707031
1983.796171	0.089769	0.768854	1341.359497
1983.797076	0.089751	0.768854	1422.584106
1983.797965	0.089615	0.768854	1502.252197
1983.798890	0.089747	0.768854	1585.268433
1983.799793	0.089755	0.768854	1666.316895
1983.800688	0.089597	0.768854	1746.506348
1983.801585	0.089623	0.768854	1826.897949
1984.798285	1.065685	0.766324	466.769928
1984.799232	0.589010	0.766324	1024.562378
1984.800147	0.091593	0.766324	1108.369995
1984.801046	0.089615	0.766324	1188.934326
1984.801973	0.089678	0.766324	1272.065552
1984.802896	0.089733	0.766324	1354.888794
1984.803805	0.089667	0.766324	1436.395874
1984.804701	0.089630	0.766324	1516.704468
1984.805650	0.089659	0.766324	1601.791260
1984.806551	0.089692	0.766324	1682.604126
1984.807448	0.089667	0.766324	1763.035156
1984.808334	0.089641	0.766324	1842.457153
1985.826145	1.097552	0.772967	494.996155
1985.827080	0.585029	0.772967	1041.998535
1985.827972	0.091860	0.772967	1123.937988
1985.828920	0.089648	0.772967	1208.924683
1985.829821	0.089703	0.772967	1289.747437
1985.830716	0.089637	0.772967	1369.972900
1985.831610	0.089681	0.772967	1450.148071
1985.832554	0.089736	0.772967	1534.859131
1985.833464	0.089659	0.772967	1616.449219
1985.834368	0.089656	0.772967	1697.498047
1985.835303	0.089667	0.772967	1781.336426
1985.836214	0.089773	0.772967	1863.119629
1986.834003	1.079117	0.770329	479.128143
1986.834910	0.637225	0.770329	1057.091553
1986.835802	0.092552	0.770329	1139.648437
1986.836772	0.089626	0.770329	1226.586060
1986.837677	0.089703	0.770329	1307.767578
1986.838562	0.089612	0.770329	1387.074097
1986.839509	0.089795	0.770329	1472.109863
1986.840414	0.089648	0.770329	1553.241699
1986.841304	0.089696	0.770329	1633.071167
1986.842223	0.089689	0.770329	1715.495117
1986.843135	0.089729	0.770329	1797.328003
1986.844034	0.089634	0.770329	1877.908813
1987.861887	1.111252	0.784117	543.402466
1987.862804	0.556168	0.784117	1053.408691
1987.863700	0.091476	0.784117	1135.371094
1987.864622	0.089572	0.784117	1217.956055
1987.865512	0.089667	0.784117	1297.759521
1987.866451	0.089670	0.784117	1381.960083
1987.867361	0.089619	0.784117	1463.513550
1987.868252	0.089718	0.784117	1543.452271
1987.869167	0.089685	0.784117	1625.514160
1987.870099	0.089590	0.784117	1709.011841
1987.871000	0.089637	0.784117	1789.775146
1987.871892	0.089659	0.784117	1869.751343
1988.868612	1.137759	0.773221	562.052856
1988.869548	0.515651	0.773221	1044.701904
1988.870455	0.090908	0.773221	1127.155640
1988.871348	0.089630	0.773221	1207.195312
1988.872300	0.089762	0.773221	1292.648682
1988.873203	0.089648	0.773221	1373.601196
1988.874099	0.089689	0.773221	1453.962280
1988.875045	0.089696	0.773221	1538.814697
1988.875943	0.089729	0.773221	1619.391357
1988.876837	0.089700	0.773221	1699.582886
1988.877727	0.089689	0.773221	1779.405884
1988.878667	0.089670	0.773221	1863.696045
1989.897284	1.062546	0.779408	462.207672
1989.898256	0.619709	0.779408	1064.565308
1989.899154	0.091282	0.779408	1146.536255
1989.900055	0.089586	0.779408	1227.253418
1989.900950	0.089645	0.779408	1307.485474
1989.901884	0.089696	0.779408	1391.261597
1989.902791	0.089703	0.779408	1472.622559
1989.903703	0.089681	0.779408	1554.411987
1989.904591	0.089707	0.779408	1634.071777
1989.905539	0.089740	0.779408	1719.145264
1989.906449	0.089670	0.779408	1800.745361
1989.907344	0.089619	0.779408	1880.954468
1990.903894	1.080227	0.774248	476.380127
1990.904837	0.613733	0.774248	1055.130249
1990.905739	0.091846	0.774248	1137.975098
1990.906634	0.089539	0.774248	1218.112061
1990.907521	0.089714	0.774248	1297.688721
1990.908465	0.089729	0.774248	1382.392944
1990.909364	0.089718	0.774248	1463.049438
1990.910267	0.089674	0.774248	1544.025146
1990.911156	0.089648	0.774248	1623.722656
1990.912112	0.089722	0.774248	1709.496582
1990.913013	0.089586	0.774248	1790.213745
1990.913917	0.089681	0.774248	1871.285767
1991.933527	1.091635	0.780456	495.602081
1991.934430	0.623093	0.780456	1058.255249
1991.935374	0.091871	0.780456	1144.981812
1991.936279	0.089593	0.780456	1226.063965
1991.937169	0.089692	0.780456	1305.890137
1991.938113	0.089751	0.780456	1390.615112
1991.939009	0.089711	0.780456	1470.995850
1991.939908	0.089659	0.780456	1551.599731
1991.940797	0.089670	0.780456	1631.316772
1991.941730	0.089795	0.780456	1715.095459
1991.942633	0.089689	0.780456	1796.084351
1991.943542	0.089714	0.780456	1877.634644
1992.938252	1.141974	0.779892	574.412842
1992.939171	0.531951	0.779892	1063.275513
1992.940073	0.091161	0.779892	1145.502686
1992.940963	0.089619	0.779892	1225.263672
1992.941909	0.089700	0.779892	1310.119629
1992.942817	0.089696	0.779892	1391.563599
1992.943715	0.089652	0.779892	1472.071167
1992.944648	0.089670	0.779892	1555.733643
1992.945557	0.089707	0.779892	1637.277344
1992.946456	0.089692	0.779892	1717.910767
1992.947343	0.089656	0.779892	1797.435425
1992.948293	0.089700	0.779892	1882.650146
1993.968730	1.084391	0.776653	484.722717
1993.969633	0.640430	0.776653	1063.030762
1993.970519	0.092717	0.776653	1145.178223
1993.971481	0.089678	0.776653	1231.448242
1993.972393	0.089722	0.776653	1313.274414
1993.973298	0.089670	0.776653	1394.426147
1993.974185	0.089747	0.776653	1474.031982
1993.975129	0.089766	0.776653	1558.770752
1993.976036	0.089656	0.776653	1640.088501
1993.976934	0.089645	0.776653	1720.589478
1993.977869	0.089755	0.776653	1804.510010
1993.978767	0.089700	0.776653	1885.060303
1994.973016	1.075800	0.788121	481.958221
1994.973913	0.640686	0.788121	1056.653564
1994.974873	0.091505	0.788121	1144.498535
1994.975772	0.089659	0.788121	1225.102417
1994.976665	0.089696	0.788121	1305.200928
1994.977583	0.089645	0.788121	1387.494873
1994.978502	0.089729	0.788121	1469.955811
1994.979413	0.089714	0.788121	1551.685547
1994.980316	0.089714	0.788121	1632.697632
1994.981256	0.089780	0.788121	1717.091064
1994.982152	0.089659	0.788121	1797.425903
1994.983056	0.089718	0.788121	1878.531006
1996.006114	1.099116	0.777809	502.296112
1996.007016	0.618651	0.777809	1060.319458
1996.007963	0.091487	0.777809	1146.957520
1996.008867	0.089641	0.777809	1227.993042
1996.009771	0.089681	0.777809	1309.065063
1996.010660	0.089663	0.777809	1388.775513
1996.011612	0.089707	0.777809	1474.176636
1996.012523	0.089700	0.777809	1555.893066
1996.013417	0.089740	0.777809	1636.120605
1996.014346	0.089758	0.777809	1719.506104
1996.015249	0.089729	0.777809	1800.531372
1996.016157	0.089663	0.777809	1881.945435
1997.007884	1.142432	0.792090	566.646057
1997.008799	0.542292	0.792090	1062.843628
1997.009701	0.091227	0.792090	1145.130249
1997.010622	0.089630	0.792090	1227.679565
1997.011512	0.089711	0.792090	1307.522095
1997.012452	0.089703	0.792090	1391.843262
1997.013357	0.089648	0.792090	1472.975098
1997.014247	0.089725	0.792090	1552.830688
1997.015185	0.089700	0.792090	1636.968994
1997.016105	0.089678	0.792090	1719.472534
1997.017033	0.089751	0.792090	1802.761475
1997.017922	0.089692	0.792090	1882.498047
1998.041553	1.078198	0.786240	476.563660
1998.042480	0.610789	0.786240	1042.764648
1998.043380	0.092153	0.786240	1125.702637
1998.044325	0.089736	0.786240	1210.503418
1998.045221	0.089725	0.786240	1290.897339
1998.046123	0.089700	0.786240	1371.806519
1998.047040	0.089700	0.786240	1454.061157
1998.047941	0.089663	0.786240	1534.847656
1998.048874	0.089612	0.786240	1618.455444
1998.049780	0.089711	0.786240	1699.733276
1998.050675	0.089703	0.786240	1780.017822
1998.051611	0.089740	0.786240	1864.014404
1999.042887	1.063158	0.792315	462.473694
1999.043783	0.650669	0.792315	1045.473145
1999.044755	0.091465	0.792315	1134.376953
1999.045665	0.089593	0.792315	1215.906982
1999.046554	0.089685	0.792315	1295.636963
1999.047493	0.089725	0.792315	1379.889038
1999.048398	0.089788	0.792315	1461.146851
1999.049292	0.089722	0.792315	1541.358032
1999.050184	0.089656	0.792315	1621.330933
1999.051118	0.089843	0.792315	1705.243896
1999.052023	0.089725	0.792315	1786.445312
1999.052921	0.089703	0.792315	1866.998901
2000.077452	1.142900	0.786079	577.164734
2000.078385	0.504763	0.786079	1048.108765
2000.079291	0.090839	0.786079	1130.408569
2000.080182	0.089564	0.786079	1210.210327
2000.081130	0.089747	0.786079	1295.290771
2000.082038	0.089685	0.786079	1376.724854
2000.082929	0.089674	0.786079	1456.624512
2000.083871	0.089663	0.786079	1541.087158
2000.084759	0.089729	0.786079	1620.766479
2000.085654	0.089696	0.786079	1701.044434
2000.086546	0.089729	0.786079	1781.082764
2000.087473	0.089722	0.786079	1864.254761
2001.077755	1.125850	0.787521	546.037048
2001.078694	0.531390	0.787521	1045.012573
2001.079595	0.091077	0.787521	1127.072632
2001.080483	0.089681	0.787521	1206.709717
2001.081440	0.089692	0.787521	1292.545288
2001.082345	0.089626	0.787521	1373.657227
2001.083232	0.089722	0.787521	1453.240356
2001.084174	0.089736	0.787521	1537.771973
2001.085079	0.089696	0.787521	1618.946899
2001.085973	0.089674	0.787521	1699.115479
2001.086863	0.089641	0.787521	1778.896118
2001.087812	0.089755	0.787521	1864.073242
2002.112732	1.080721	0.786474	484.163177
2002.113629	0.638416	0.786474	1056.821899
2002.114587	0.091586	0.786474	1144.561035
2002.115485	0.089590	0.786474	1225.012695
2002.116371	0.089685	0.786474	1304.473633
2002.117277	0.089630	0.786474	1385.678467
2002.118212	0.089718	0.786474	1469.564819
2002.119121	0.089652	0.786474	1551.058594
2002.120008	0.089696	0.786474	1630.619019
2002.120954	0.089766	0.786474	1715.537354
2002.121859	0.089769	0.786474	1796.778564
2002.122756	0.089674	0.786474	1877.216187
2003.112394	1.074584	0.784601	471.742279
2003.113293	0.637493	0.784601	1044.848145
2003.114280	0.091055	0.784601	1134.719116
2003.115186	0.089615	0.784601	1215.910767
2003.116083	0.089637	0.784601	1296.315552
2003.117020	0.089711	0.784601	1380.374512
2003.117922	0.089769	0.784601	1461.346436
2003.118818	0.089663	0.784601	1541.684570
2003.119708	0.089663	0.784601	1621.484741
2003.120640	0.089755	0.784601	1705.136108
2003.121547	0.089656	0.784601	1786.453857
2003.122447	0.089707	0.784601	1867.190186
2004.147794	1.079491	0.786309	479.293945
2004.148700	0.640730	0.786309	1059.795288
2004.149592	0.092615	0.786309	1142.407593
2004.150556	0.089700	0.786309	1228.878174
2004.151463	0.089711	0.786309	1310.245728
2004.152360	0.089722	0.786309	1390.726074
2004.153254	0.089740	0.786309	1470.953613
2004.154185	0.089696	0.786309	1554.460693
2004.155092	0.089689	0.786309	1635.808350
2004.155986	0.089755	0.786309	1716.048950
2004.156920	0.089692	0.786309	1799.821655
2004.157826	0.089736	0.786309	1881.122803
2005.147746	1.098633	0.786160	499.877930
2005.148645	0.629583	0.786160	1065.872559
2005.149535	0.092461	0.786160	1148.162842
2005.150506	0.089678	0.786160	1235.239868
2005.151405	0.089674	0.786160	1315.856812
2005.152305	0.089689	0.786160	1396.576660
2005.153220	0.089619	0.786160	1478.578125
2005.154135	0.089725	0.786160	1560.676758
2005.155039	0.089623	0.786160	1641.695801
2005.155936	0.089659	0.786160	1722.120361
2005.156863	0.089758	0.786160	1805.326294
2005.157762	0.089766	0.786160	1886.025635
2006.181717	1.085577	0.784976	485.253082
2006.182632	0.627187	0.784976	1059.129639
2006.183568	0.091564	0.784976	1144.833252
2006.184471	0.089641	0.784976	1225.779175
2006.185378	0.089755	0.784976	1307.186646
2006.186267	0.089736	0.784976	1386.962280
2006.187213	0.089725	0.784976	1471.842407
2006.188116	0.089773	0.784976	1552.907349
2006.189014	0.089799	0.784976	1633.546509
2006.189940	0.089692	0.784976	1716.601685
2006.190849	0.089736	0.784976	1798.171997
2006.191750	0.089590	0.784976	1878.892456
2007.183181	1.076935	0.789318	476.005188
2007.184147	0.551514	0.789318	1008.767395
2007.185061	0.091208	0.789318	1092.131958
2007.185956	0.089590	0.789318	1172.314819
2007.186899	0.089747	0.789318	1256.946533
2007.187803	0.089696	0.789318	1338.031738
2007.188706	0.089740	0.789318	1419.066895
2007.189591	0.089681	0.789318	1498.434937
2007.190541	0.089707	0.789318	1583.656616
2007.191447	0.089652	0.789318	1664.881470
2007.192338	0.089692	0.789318	1744.797363
2007.193275	0.089758	0.789318	1828.900879
2008.215369	1.061191	0.788319	460.557098
2008.216266	0.662000	0.788319	1054.370728
2008.217225	0.091582	0.788319	1142.197876
2008.218132	0.089608	0.788319	1223.472412
2008.219031	0.089670	0.788319	1304.086060
2008.219973	0.089799	0.788319	1388.676270
2008.220875	0.089703	0.788319	1469.588745
2008.221779	0.089733	0.788319	1550.707031
2008.222665	0.089744	0.788319	1630.219971
2008.223600	0.089769	0.788319	1714.154297
2008.224506	0.089747	0.788319	1795.465332
2008.225401	0.089755	0.788319	1875.795776
2009.219966	1.139132	0.801197	555.896484
2009.220896	0.529783	0.801197	1048.594482
2009.221803	0.091146	0.801197	1131.264160
2009.222690	0.089608	0.801197	1210.746582
2009.223641	0.089817	0.801197	1296.162476
2009.224543	0.089652	0.801197	1377.028687
2009.225440	0.089711	0.801197	1457.499146
2009.226376	0.089758	0.801197	1541.512939
2009.227276	0.089810	0.801197	1622.341553
2009.228171	0.089670	0.801197	1702.596558
2009.229057	0.089718	0.801197	1782.086670
2009.229989	0.089762	0.801197	1865.744873
2010.249956	1.100057	0.796432	506.026398
2010.250893	0.572406	0.796432	1042.370850
2010.251796	0.091604	0.796432	1125.089233
2010.252708	0.089678	0.796432	1206.875366
2010.253635	0.089777	0.796432	1290.098267
2010.254543	0.089722	0.796432	1371.565552
2010.255433	0.089744	0.796432	1451.437378
2010.256364	0.089722	0.796432	1534.968262
2010.257276	0.089795	0.796432	1616.861206
2010.258178	0.089821	0.796432	1697.879395
2010.259070	0.089722	0.796432	1777.911133
2010.260024	0.089810	0.796432	1863.589478
2011.256439	1.112146	0.806293	519.372131
2011.257365	0.571194	0.806293	1048.297607
2011.258267	0.091560	0.806293	1130.884766
2011.259154	0.089604	0.806293	1210.363892
2011.260099	0.089766	0.806293	1295.192383
2011.261006	0.089685	0.806293	1376.536743
2011.261898	0.089784	0.806293	1456.624023
2011.262830	0.089729	0.806293	1540.251465
2011.263726	0.089773	0.806293	1620.687988
2011.264621	0.089707	0.806293	1700.975830
2011.265513	0.089736	0.806293	1781.020630
2011.266446	0.089751	0.806293	1864.758301
2012.285125	1.065406	0.801419	463.451813
2012.286074	0.604900	0.801419	1037.501831
2012.286986	0.091505	0.801419	1120.954468
2012.287888	0.089590	0.801419	1201.764526
2012.288781	0.089678	0.801419	1281.846802
2012.289734	0.089762	0.801419	1367.389893
2012.290642	0.089703	0.801419	1448.840576
2012.291543	0.089703	0.801419	1529.663330
2012.292431	0.089707	0.801419	1609.323120
2012.293363	0.089744	0.801419	1692.964233
2012.294275	0.089670	0.801419	1774.743652
2012.295166	0.089678	0.801419	1854.646484
2013.292615	1.072793	0.803075	468.810547
2013.293591	0.559885	0.803075	1015.258484
2013.294488	0.091340	0.803075	1097.190796
2013.295379	0.089703	0.803075	1177.116455
2013.296312	0.089729	0.803075	1260.833618
2013.297215	0.089722	0.803075	1341.852295
2013.298122	0.089630	0.803075	1423.146851
2013.299011	0.089670	0.803075	1502.863892
2013.299959	0.089747	0.803075	1587.944336
2013.300858	0.089670	0.803075	1668.557983
2013.301752	0.089711	0.803075	1748.759277
2013.302688	0.089791	0.803075	1832.803955
2014.319056	1.077499	0.805838	481.641968
2014.320040	0.531980	0.805838	1005.110291
2014.320931	0.091216	0.805838	1086.383545
2014.321819	0.089711	0.805838	1166.046631
2014.322725	0.089685	0.805838	1247.301270
2014.323663	0.089740	0.805838	1331.477417
2014.324567	0.089700	0.805838	1412.565918
2014.325459	0.089725	0.805838	1492.600952
2014.326387	0.089744	0.805838	1575.883057
2014.327295	0.089700	0.805838	1657.330444
2014.328195	0.089685	0.805838	1738.046997
2014.329133	0.089747	0.805838	1822.229980
2015.328844	1.065359	0.797773	465.561829
2015.329741	0.665394	0.797773	1062.420532
2015.330717	0.091359	0.797773	1151.586548
2015.331622	0.089645	0.797773	1232.715088
2015.332512	0.089667	0.797773	1312.518555
2015.333466	0.089700	0.797773	1398.092041
2015.334363	0.089641	0.797773	1478.500122
2015.335288	0.089689	0.797773	1561.462158
2015.336175	0.089707	0.797773	1641.032349
2015.337110	0.089729	0.797773	1724.928955
2015.338015	0.089659	0.797773	1806.070801
2015.338910	0.089696	0.797773	1886.348755
2016.354262	1.082285	0.804501	485.945984
2016.355199	0.586307	0.804501	1035.315918
2016.356088	0.091879	0.804501	1116.996094
2016.357056	0.089593	0.804501	1203.722656
2016.357958	0.089634	0.804501	1284.572388
2016.358856	0.089619	0.804501	1365.050415
2016.359784	0.089692	0.804501	1448.284912
2016.360694	0.089656	0.804501	1529.871704
2016.361593	0.089590	0.804501	1610.412964
2016.362481	0.089663	0.804501	1690.033813
2016.363403	0.089696	0.804501	1772.733521
2016.364314	0.089663	0.804501	1854.416626
2017.364552	1.070164	0.793536	467.661499
2017.365510	0.621786	0.793536	1063.332397
2017.366425	0.091344	0.793536	1146.912109
2017.367326	0.089586	0.793536	1227.629272
2017.368219	0.089696	0.793536	1307.727783
2017.369165	0.089769	0.793536	1392.649536
2017.370068	0.089718	0.793536	1473.664917
2017.370971	0.089700	0.793536	1554.663696
2017.371858	0.089663	0.793536	1634.194824
2017.372787	0.089703	0.793536	1717.529297
2017.373693	0.089707	0.793536	1798.803833
2017.374594	0.089725	0.793536	1879.646362
2018.389596	1.086347	0.809810	487.769592
2018.390494	0.640159	0.809810	1062.632080
2018.391382	0.092692	0.809810	1144.942261
2018.392340	0.089634	0.809810	1230.811401
2018.393232	0.089681	0.809810	1310.807251
2018.394141	0.089696	0.809810	1392.340942
2018.395033	0.089615	0.809810	1472.277954
2018.395990	0.089703	0.809810	1558.124023
2018.396894	0.089670	0.809810	1639.186035
2018.397792	0.089678	0.809810	1719.716675
2018.398714	0.089736	0.809810	1802.453613
2018.399615	0.089659	0.809810	1883.236816
2019.399896	1.090583	0.805032	490.762543
2019.400808	0.623115	0.805032	1059.043701
2019.401697	0.092333	0.805032	1141.127563
2019.402657	0.089667	0.805032	1227.207642
2019.403551	0.089641	0.805032	1307.346802
2019.404451	0.089663	0.805032	1388.043579
2019.405380	0.089718	0.805032	1471.391602
2019.406285	0.089736	0.805032	1552.603027
2019.407184	0.089681	0.805032	1633.226562
2019.408074	0.089597	0.805032	1712.968018
2019.409017	0.089758	0.805032	1797.610107
2019.409916	0.089681	0.805032	1878.233643
2020.424654	1.076122	0.807079	475.645905
2020.425622	0.548932	0.807079	1007.011963
2020.426524	0.091322	0.807079	1089.384399
2020.427430	0.089758	0.807079	1170.705444
2020.428338	0.089788	0.807079	1252.232544
2020.429259	0.089725	0.807079	1334.869629
2020.430170	0.089692	0.807079	1416.579346
2020.431060	0.089740	0.807079	1496.447876
2020.431988	0.089751	0.807079	1579.736816
2020.432892	0.089678	0.807079	1660.805542
2020.433797	0.089718	0.807079	1742.000366
2020.434690	0.089714	0.807079	1822.115234
2021.435213	1.072320	0.802736	471.821014
2021.436110	0.638368	0.802736	1044.437012
2021.437088	0.091198	0.802736	1133.628174
2021.438007	0.089626	0.802736	1215.994873
2021.438901	0.089663	0.802736	1296.153687
2021.439856	0.089692	0.802736	1381.809937
2021.440755	0.089659	0.802736	1462.413818
2021.441647	0.089670	0.802736	1542.399780
2021.442576	0.089670	0.802736	1625.703613
2021.443485	0.089564	0.802736	1707.117432
2021.444383	0.089652	0.802736	1787.625000
2021.445267	0.089645	0.802736	1866.870972
2022.460118	1.085841	0.807413	487.542633
2022.461013	0.642964	0.807413	1062.995361
2022.461966	0.091783	0.807413	1150.464966
2022.462869	0.089674	0.807413	1231.440674
2022.463766	0.089630	0.807413	1311.838867
2022.464652	0.089557	0.807413	1391.186279
2022.465589	0.089714	0.807413	1475.248657
2022.466495	0.089615	0.807413	1556.440308
2022.467391	0.089626	0.807413	1636.745605
2022.468320	0.089645	0.807413	1720.025635
2022.469225	0.089626	0.807413	1801.137573
2022.470126	0.089612	0.807413	1881.877808
2023.470411	1.073826	0.809190	472.483307
2023.471310	0.640452	0.809190	1048.249268
2023.472264	0.091674	0.809190	1135.705811
2023.473173	0.089561	0.809190	1217.116333
2023.474067	0.089678	0.809190	1297.288208
2023.475009	0.089725	0.809190	1381.809448
2023.475905	0.089766	0.809190	1462.239502
2023.476805	0.089681	0.809190	1542.952759
2023.477694	0.089645	0.809190	1622.646973
2023.478643	0.089656	0.809190	1707.730347
2023.479552	0.089678	0.809190	1789.247437
2023.480458	0.089608	0.809190	1870.432373
2024.495713	1.094502	0.811373	495.809387
2024.496616	0.628220	0.811373	1063.092285
2024.497503	0.092527	0.811373	1145.163574
2024.498455	0.089623	0.811373	1230.484497
2024.499349	0.089670	0.811373	1310.649902
2024.500248	0.089667	0.811373	1391.260254
2024.501140	0.089637	0.811373	1471.216797
2024.502081	0.089733	0.811373	1555.655273
2024.502991	0.089670	0.811373	1637.255371
2024.503891	0.089656	0.811373	1717.945557
2024.504812	0.089751	0.811373	1800.606201
2024.505704	0.089718	0.811373	1880.634644
2025.505015	1.117097	0.816823	527.269836
2025.505937	0.574186	0.816823	1056.669189
2025.506836	0.091582	0.816823	1139.001465
2025.507721	0.089648	0.816823	1218.340332
2025.508649	0.089718	0.816823	1301.598633
2025.509556	0.089593	0.816823	1382.859985
2025.510453	0.089689	0.816823	1463.310791
2025.511379	0.089791	0.816823	1546.457520
2025.512287	0.089795	0.816823	1627.991333
2025.513193	0.089692	0.816823	1709.252686
2025.514081	0.089718	0.816823	1788.922241
2025.515033	0.089762	0.816823	1874.375610
2026.531468	1.136521	0.809036	569.397034
2026.532388	0.534565	0.809036	1061.197266
2026.533285	0.091296	0.809036	1143.090088
2026.534173	0.089685	0.809036	1222.730469
2026.535098	0.089832	0.809036	1305.824585
2026.536006	0.089725	0.809036	1387.295166
2026.536906	0.089681	0.809036	1468.008423
2026.537832	0.089703	0.809036	1551.073730
2026.538747	0.089791	0.809036	1633.232788
2026.539654	0.089634	0.809036	1714.530640
2026.540555	0.089685	0.809036	1795.336914
2026.541497	0.089714	0.809036	1879.847900
2027.539063	1.123107	0.818753	526.737061
2027.539983	0.568315	0.818753	1049.587280
2027.540877	0.091593	0.818753	1131.471436
2027.541823	0.089656	0.818753	1216.285767
2027.542737	0.089670	0.818753	1298.244507
2027.543632	0.089659	0.818753	1378.489746
2027.544520	0.089641	0.818753	1458.091064
2027.545472	0.089777	0.818753	1543.558350
2027.546366	0.089608	0.818753	1623.668091
2027.547258	0.089623	0.818753	1703.611572
2027.548192	0.089663	0.818753	1787.356934
2027.549103	0.089736	0.818753	1869.106689
2028.567125	1.077803	0.806592	479.622223
2028.568018	0.652130	0.806592	1061.974365
2028.568976	0.091663	0.806592	1149.787109
2028.569876	0.089550	0.806592	1230.381714
2028.570762	0.089630	0.806592	1309.793945
2028.571703	0.089692	0.806592	1394.194458
2028.572625	0.089597	0.806592	1476.803101
2028.573523	0.089645	0.806592	1557.304077
2028.574415	0.089634	0.806592	1637.257446
2028.575369	0.089681	0.806592	1722.813477
2028.576273	0.089623	0.806592	1803.832520
2028.577165	0.089645	0.806592	1883.795654
2029.573962	1.078462	0.816118	471.287903
2029.574926	0.561742	0.816118	1012.807068
2029.575838	0.091428	0.816118	1096.189575
2029.576738	0.089670	0.816118	1176.892944
2029.577670	0.089747	0.816118	1260.537476
2029.578576	0.089744	0.816118	1341.845215
2029.579481	0.089641	0.816118	1422.970459
2029.580373	0.089659	0.816118	1502.946655
2029.581314	0.089678	0.816118	1587.333374
2029.582226	0.089674	0.816118	1669.116089
2029.583129	0.089740	0.816118	1750.151245
2029.584014	0.089714	0.816118	1829.548462
2030.603603	1.074170	0.801951	475.857269
2030.604566	0.571161	0.801951	1025.885254
2030.605467	0.091432	0.801951	1108.265381
2030.606372	0.089670	0.801951	1189.417114
2030.607267	0.089652	0.801951	1269.655762
2030.608214	0.089714	0.801951	1354.615234
2030.609123	0.089637	0.801951	1436.095703
2030.610025	0.089648	0.801951	1516.958618
2030.610952	0.089736	0.801951	1600.144165
2030.611854	0.089751	0.801951	1681.099609
2030.612747	0.089670	0.801951	1761.175293
2030.613637	0.089678	0.801951	1840.988525
2031.607420	1.092367	0.820191	533.075073
2031.608349	0.538143	0.820191	1033.010254
2031.609250	0.091252	0.820191	1115.228760
2031.610144	0.089557	0.820191	1195.292603
2031.611095	0.089714	0.820191	1280.610962
2031.611992	0.089769	0.820191	1361.134033
2031.612889	0.089714	0.820191	1441.607788
2031.613777	0.089736	0.820191	1521.293701
2031.614709	0.089762	0.820191	1604.951904
2031.615618	0.089670	0.820191	1686.462280
2031.616512	0.089696	0.820191	1766.650513
2031.617439	0.089692	0.820191	1849.795410
2032.639945	1.063469	0.804263	461.545624
2032.640906	0.582876	0.804263	1021.689453
2032.641817	0.091490	0.804263	1105.037231
2032.642727	0.089623	0.804263	1186.593994
2032.643617	0.089648	0.804263	1266.381104
2032.644563	0.089703	0.804263	1351.240479
2032.645464	0.089608	0.804263	1431.977417
2032.646360	0.089637	0.804263	1512.292603
2032.647306	0.089769	0.804263	1597.214355
2032.648202	0.089637	0.804263	1677.529541
2032.649104	0.089641	0.804263	1758.385864
2032.649998	0.089692	0.804263	1838.570801
2033.642201	1.090466	0.812698	495.071747
2033.643105	0.627722	0.812698	1062.532593
2033.643993	0.092468	0.812698	1144.644409
2033.644957	0.089645	0.812698	1231.062012
2033.645863	0.089626	0.812698	1312.263550
2033.646750	0.089681	0.812698	1391.810913
2033.647690	0.089744	0.812698	1476.169922
2033.648590	0.089634	0.812698	1556.840332
2033.649483	0.089659	0.812698	1636.906250
2033.650399	0.089681	0.812698	1719.054443
2033.651313	0.089766	0.812698	1801.100220
2033.652220	0.089626	0.812698	1882.391357
2034.677473	1.095055	0.812074	494.964813
2034.678406	0.583956	0.812074	1039.796021
2034.679312	0.091542	0.812074	1122.732788
2034.680201	0.089590	0.812074	1202.378174
2034.681146	0.089700	0.812074	1287.144409
2034.682055	0.089593	0.812074	1368.584961
2034.682945	0.089634	0.812074	1448.359009
2034.683869	0.089667	0.812074	1531.211060
2034.684774	0.089674	0.812074	1612.366089
2034.685672	0.089634	0.812074	1692.857178
2034.686565	0.089663	0.812074	1772.926270
2034.687519	0.089703	0.812074	1858.503296
2035.676374	1.073159	0.820280	477.555847
2035.677268	0.655547	0.820280	1063.614746
2035.678225	0.091688	0.820280	1151.360352
2035.679124	0.089564	0.820280	1231.878540
2035.680040	0.089623	0.820280	1313.973022
2035.680937	0.089670	0.820280	1394.407349
2035.681900	0.089615	0.820280	1480.707031
2035.682802	0.089663	0.820280	1561.583130
2035.683690	0.089634	0.820280	1641.177979
2035.684639	0.089692	0.820280	1726.296021
2035.685542	0.089553	0.820280	1807.162598
2035.686430	0.089689	0.820280	1886.806152
2036.714362	1.123843	0.812606	534.949158
2036.715292	0.547123	0.812606	1043.773315
2036.716190	0.091230	0.812606	1125.698242
2036.717123	0.089634	0.812606	1209.326538
2036.718025	0.089685	0.812606	1290.222412
2036.718924	0.089689	0.812606	1370.852539
2036.719814	0.089659	0.812606	1450.649414
2036.720753	0.089685	0.812606	1534.863647
2036.721655	0.089659	0.812606	1615.736450
2036.722547	0.089729	0.812606	1695.774658
2036.723474	0.089692	0.812606	1778.919434
2036.724391	0.089656	0.812606	1861.133789
2037.711567	1.078396	0.822133	482.042999
2037.712464	0.649504	0.822133	1064.648437
2037.713400	0.092809	0.822133	1151.517456
2037.714315	0.089663	0.822133	1233.559204
2037.715228	0.089619	0.822133	1315.381470
2037.716122	0.089590	0.822133	1395.474731
2037.717007	0.089670	0.822133	1474.833008
2037.717951	0.089648	0.822133	1559.461182
2037.718846	0.089689	0.822133	1639.732544
2037.719757	0.089678	0.822133	1721.428955
2037.720652	0.089634	0.822133	1801.651245
2037.721618	0.089685	0.822133	1888.286987
2038.748656	1.096985	0.815575	506.807007
2038.749567	0.605482	0.815575	1058.401245
2038.750516	0.092029	0.815575	1145.736572
2038.751421	0.089601	0.815575	1226.825317
2038.752310	0.089663	0.815575	1306.535767
2038.753200	0.089681	0.815575	1386.352173
2038.754138	0.089751	0.815575	1470.538574
2038.755045	0.089590	0.815575	1551.796509
2038.755947	0.089656	0.815575	1632.666016
2038.756836	0.089700	0.815575	1712.409058
2038.757781	0.089692	0.815575	1797.168335
2038.758686	0.089652	0.815575	1878.303467
2039.746936	1.121825	0.818092	536.232361
2039.747856	0.569330	0.818092	1060.015869
2039.748759	0.091575	0.818092	1142.707886
2039.749647	0.089626	0.818092	1222.296143
2039.750589	0.089736	0.818092	1306.827759
2039.751490	0.089652	0.818092	1387.604248
2039.752384	0.089641	0.818092	1467.743408
2039.753311	0.089722	0.818092	1550.915405
2039.754223	0.089736	0.818092	1632.754883
2039.755129	0.089681	0.818092	1714.006226
2039.756018	0.089733	0.818092	1793.778564
2039.756965	0.089784	0.818092	1878.803955
2040.783365	1.134957	0.818265	566.343689
2040.784292	0.531899	0.818265	1059.414429
2040.785190	0.091267	0.818265	1141.372314
2040.786077	0.089619	0.818265	1220.864502
2040.787025	0.089751	0.818265	1305.948486
2040.787924	0.089579	0.818265	1386.479858
2040.788818	0.089641	0.818265	1466.619019
2040.789757	0.089736	0.818265	1550.881470
2040.790671	0.089703	0.818265	1632.870361
2040.791585	0.089641	0.818265	1714.802368
2040.792485	0.089681	0.818265	1795.515625
2040.793425	0.089755	0.818265	1879.885010
2041.781962	1.067424	0.819462	465.397034
2041.782885	0.641616	0.819462	1057.608887
2041.783821	0.091545	0.819462	1143.295410
2041.784729	0.089583	0.819462	1224.636353
2041.785629	0.089681	0.819462	1305.349609
2041.786574	0.089707	0.819462	1390.122803
2041.787478	0.089696	0.819462	1471.208008
2041.788379	0.089641	0.819462	1551.974609
2041.789263	0.089623	0.819462	1631.201172
2041.790206	0.089663	0.819462	1715.753418
2041.791116	0.089685	0.819462	1797.366821
2041.792014	0.089656	0.819462	1877.877686
2042.817895	1.093206	0.814213	501.781372
2042.818796	0.621031	0.814213	1061.330811
2042.819735	0.092113	0.814213	1147.824951
2042.820640	0.089663	0.814213	1228.970093
2042.821541	0.089678	0.814213	1309.769775
2042.822434	0.089656	0.814213	1389.832397
2042.823383	0.089718	0.814213	1474.974854
2042.824286	0.089689	0.814213	1555.963745
2042.825192	0.089714	0.814213	1637.244995
2042.826100	0.089751	0.814213	1718.738892
2042.827016	0.089681	0.814213	1800.887085
2042.827925	0.089634	0.814213	1882.364258
2043.818836	1.084739	0.818829	481.623993
2043.819744	0.639913	0.818829	1062.665283
2043.820675	0.091758	0.818829	1148.091797
2043.821580	0.089484	0.818829	1229.074463
2043.822473	0.089670	0.818829	1309.150146
2043.823403	0.089722	0.818829	1392.591309
2043.824306	0.089652	0.818829	1473.547119
2043.825206	0.089648	0.818829	1554.230713
2043.826092	0.089678	0.818829	1633.685181
2043.827021	0.089674	0.818829	1716.992432
2043.827937	0.089630	0.818829	1799.093628
2043.828842	0.089689	0.818829	1880.261963
2044.852426	1.072222	0.817319	469.633087
2044.853395	0.568260	0.817319	1020.277466
2044.854311	0.091190	0.817319	1103.807617
2044.855209	0.089604	0.817319	1184.272461
2044.856098	0.089674	0.817319	1263.992676
2044.857048	0.089733	0.817319	1349.238770
2044.857952	0.089615	0.817319	1430.251221
2044.858839	0.089612	0.817319	1509.736938
2044.859800	0.089722	0.817319	1595.959473
2044.860706	0.089659	0.817319	1677.190918
2044.861606	0.089659	0.817319	1757.884399
2044.862493	0.089626	0.817319	1837.383057
2045.854541	1.065443	0.828505	466.664093
2045.855434	0.665790	0.828505	1061.214355
2045.856377	0.091923	0.828505	1147.897339
2045.857286	0.089663	0.828505	1229.401123
2045.858197	0.089685	0.828505	1311.104248
2045.859092	0.089648	0.828505	1391.339600
2045.860032	0.089722	0.828505	1475.677979
2045.860945	0.089637	0.828505	1557.516968
2045.861844	0.089714	0.828505	1638.170166
2045.862775	0.089689	0.828505	1721.670410
2045.863678	0.089722	0.828505	1802.689087
2045.864581	0.089659	0.828505	1883.651611
2046.886616	1.084775	0.819019	481.640259
2046.887546	0.604424	0.819019	1043.754395
2046.888439	0.091989	0.819019	1125.900146
2046.889382	0.089590	0.819019	1210.383423
2046.890279	0.089663	0.819019	1290.811157
2046.891180	0.089641	0.819019	1371.577759
2046.892071	0.089626	0.819019	1451.434937
2046.893002	0.089711	0.819019	1534.955566
2046.893914	0.089539	0.819019	1616.614746
2046.894817	0.089623	0.819019	1697.544189
2046.895727	0.089619	0.819019	1779.097656
2046.896654	0.089670	0.819019	1862.222168
2047.890255	1.077861	0.834286	477.492554
2047.891166	0.635281	0.834286	1056.233398
2047.892055	0.092574	0.834286	1138.532104
2047.893029	0.089696	0.834286	1225.895996
2047.893938	0.089685	0.834286	1307.419678
2047.894840	0.089663	0.834286	1388.295776
2047.895768	0.089685	0.834286	1471.523560
2047.896670	0.089733	0.834286	1552.462402
2047.897567	0.089634	0.834286	1632.863892
2047.898456	0.089656	0.834286	1712.567871
2047.899396	0.089729	0.834286	1796.913086
2047.900299	0.089670	0.834286	1877.885498
2048.921290	1.065582	0.823704	464.593872
2048.922216	0.645718	0.823704	1062.528564
2048.923123	0.092084	0.823704	1146.048462
2048.924039	0.089539	0.823704	1228.065796
2048.924927	0.089656	0.823704	1307.680176
2048.925856	0.089645	0.823704	1390.960205
2048.926763	0.089648	0.823704	1472.271362
2048.927665	0.089645	0.823704	1553.130981
2048.928557	0.089593	0.823704	1633.048340
2048.929511	0.089674	0.823704	1718.597412
2048.930418	0.089604	0.823704	1799.868652
2048.931316	0.089637	0.823704	1880.363037
2049.925888	1.140242	0.829932	551.877014
2049.926816	0.539949	0.829932	1052.949463
2049.927720	0.091296	0.829932	1135.481445
2049.928607	0.089707	0.829932	1215.051636
2049.929553	0.089806	0.829932	1300.008057
2049.930460	0.089703	0.829932	1381.369019
2049.931351	0.089707	0.829932	1461.297974
2049.932281	0.089758	0.829932	1544.773193
2049.933175	0.089736	0.829932	1624.997437
2049.934075	0.089689	0.829932	1705.717285
2049.934964	0.089725	0.829932	1785.483154
2049.935902	0.089828	0.829932	1869.741699
2050.956752	1.078220	0.833948	478.729736
2050.957656	0.648226	0.833948	1064.726318
2050.958543	0.092842	0.833948	1147.077026
2050.959493	0.089747	0.833948	1232.336914
2050.960399	0.089755	0.833948	1313.654663
2050.961298	0.089678	0.833948	1394.274902
2050.962234	0.089766	0.833948	1478.295532
2050.963139	0.089806	0.833948	1559.569824
2050.964040	0.089678	0.833948	1640.369507
2050.964928	0.089678	0.833948	1720.003296
2050.965864	0.089755	0.833948	1804.013672
2050.966763	0.089736	0.833948	1884.686646
2051.961559	1.075730	0.824066	475.472656
2051.962462	0.641052	0.824066	1054.342773
2051.963439	0.091172	0.824066	1143.417725
2051.964344	0.089626	0.824066	1224.529663
2051.965235	0.089685	0.824066	1304.439087
2051.966160	0.089788	0.824066	1387.492676
2051.967070	0.089670	0.824066	1469.092773
2051.967968	0.089707	0.824066	1549.649658
2051.968854	0.089678	0.824066	1629.104126
2051.969798	0.089711	0.824066	1713.791016
2051.970704	0.089733	0.824066	1795.088867
2051.971596	0.089711	0.824066	1875.110840
2052.992644	1.135796	0.829480	558.811523
2052.993572	0.541469	0.829480	1061.294312
2052.994470	0.091249	0.829480	1143.235718
2052.995357	0.089583	0.829480	1222.695435
2052.996286	0.089755	0.829480	1306.077515
2052.997192	0.089681	0.829480	1387.328857
2052.998082	0.089637	0.829480	1467.106201
2052.999009	0.089755	0.829480	1550.308716
2052.999916	0.089751	0.829480	1631.712891
2053.000822	0.089714	0.829480	1712.994141
2053.001716	0.089773	0.829480	1793.251099
2053.002656	0.089769	0.829480	1877.634277
2053.996374	1.085207	0.830157	484.002533
2053.997276	0.639082	0.830157	1060.454468
2053.998163	0.092769	0.830157	1142.740234
2053.999129	0.089762	0.830157	1229.450317
2054.000030	0.089700	0.830157	1310.269775
2054.000927	0.089736	0.830157	1390.763306
2054.001875	0.089788	0.830157	1475.881958
2054.002772	0.089755	0.830157	1556.391846
2054.003673	0.089652	0.830157	1637.168335
2054.004562	0.089762	0.830157	1716.966675
2054.005493	0.089777	0.830157	1800.548706
2054.006403	0.089733	0.830157	1882.205444
2055.026771	1.080604	0.827039	481.949463
2055.027671	0.644030	0.827039	1061.576050
2055.028612	0.092186	0.827039	1148.323364
2055.029516	0.089674	0.827039	1229.388672
2055.030419	0.089641	0.827039	1310.334595
2055.031336	0.089751	0.827039	1392.636230
2055.032226	0.089641	0.827039	1472.416870
2055.033171	0.089740	0.827039	1557.221191
2055.034062	0.089652	0.827039	1637.101196
2055.034954	0.089762	0.827039	1717.168823
2055.035880	0.089733	0.827039	1800.261230
2055.036801	0.089634	0.827039	1882.813965
2056.032612	1.091979	0.836635	494.666382
2056.033519	0.624642	0.836635	1061.217041
2056.034410	0.092461	0.836635	1143.599731
2056.035355	0.089711	0.836635	1228.376343
2056.036261	0.089780	0.836635	1309.717285
2056.037164	0.089755	0.836635	1390.765747
2056.038053	0.089700	0.836635	1470.508789
2056.038992	0.089751	0.836635	1554.784912
2056.039899	0.089718	0.836635	1636.159180
2056.040798	0.089656	0.836635	1716.759766
2056.041741	0.089758	0.836635	1801.401855
2056.042642	0.089773	0.836635	1882.287231
2057.062878	1.088544	0.847209	489.844635
2057.063775	0.636573	0.847209	1060.851074
2057.064693	0.092545	0.847209	1145.807495
2057.065632	0.089762	0.847209	1230.093994
2057.066541	0.089645	0.847209	1311.581055
2057.067436	0.089729	0.847209	1391.888550
2057.068368	0.089755	0.847209	1475.539917
2057.069272	0.089777	0.847209	1556.697998
2057.070175	0.089780	0.847209	1637.769531
2057.071066	0.089670	0.847209	1717.665894
2057.072018	0.089795	0.847209	1803.150635
2057.072928	0.089751	0.847209	1884.823975
2058.066644	1.074653	0.833029	474.996735
2058.067536	0.658044	0.833029	1061.972412
2058.068488	0.091831	0.833029	1149.395508
2058.069394	0.089700	0.833029	1230.663452
2058.070292	0.089755	0.833029	1311.263184
2058.071177	0.089681	0.833029	1390.631226
2058.072117	0.089700	0.833029	1474.948975
2058.073028	0.089703	0.833029	1556.668701
2058.073924	0.089689	0.833029	1637.029785
2058.074853	0.089718	0.833029	1720.377808
2058.075758	0.089733	0.833029	1801.585937
2058.076671	0.089711	0.833029	1883.491821
2059.098241	1.132632	0.831092	556.122253
2059.099169	0.534342	0.831092	1051.991699
2059.100071	0.091245	0.831092	1134.294800
2059.100959	0.089641	0.831092	1213.896118
2059.101912	0.089707	0.831092	1299.386963
2059.102817	0.089681	0.831092	1380.548584
2059.103710	0.089689	0.831092	1460.640625
2059.104634	0.089755	0.831092	1543.573975
2059.105537	0.089718	0.831092	1624.589355
2059.106436	0.089626	0.831092	1705.163574
2059.107335	0.089769	0.831092	1785.866211
2059.108260	0.089780	0.831092	1868.912964
2060.102258	1.114468	0.839668	524.914368
2060.103168	0.596484	0.839668	1067.715088
2060.104058	0.092069	0.839668	1149.656616
2060.105007	0.089692	0.839668	1234.774658
2060.105910	0.089788	0.839668	1315.852905
2060.106811	0.089740	0.839668	1396.708618
2060.107719	0.089821	0.839668	1478.265625
2060.108648	0.089813	0.839668	1561.702148
2060.109560	0.089696	0.839668	1643.504883
2060.110458	0.089663	0.839668	1724.022339
2060.111382	0.089725	0.839668	1806.928589
2060.112277	0.089773	0.839668	1887.275391
2061.133390	1.064476	0.832582	466.240662
2061.134315	0.637328	0.832582	1055.768921
2061.135248	0.091644	0.832582	1141.273071
2061.136164	0.089604	0.832582	1223.350830
2061.137060	0.089762	0.832582	1303.777588
2061.138003	0.089810	0.832582	1388.468018
2061.138903	0.089795	0.832582	1469.283447
2061.139808	0.089707	0.832582	1550.468262
2061.140694	0.089740	0.832582	1629.977905
2061.141636	0.089799	0.832582	1714.568115
2061.142547	0.089703	0.832582	1796.287842
2061.143435	0.089758	0.832582	1875.993164
2062.137288	1.066728	0.834673	467.227081
2062.138181	0.655001	0.834673	1052.143188
2062.139155	0.091410	0.834673	1141.176392
2062.140059	0.089626	0.834673	1222.198730
2062.140952	0.089733	0.834673	1302.329956
2062.141881	0.089777	0.834673	1385.732422
2062.142792	0.089670	0.834673	1467.422119
2062.143698	0.089751	0.834673	1548.736450
2062.144594	0.089766	0.834673	1629.166504
2062.145526	0.089707	0.834673	1712.773437
2062.146432	0.089729	0.834673	1794.067871
2062.147324	0.089780	0.834673	1874.151855
2063.168532	1.120415	0.826701	574.772949
2063.169459	0.515065	0.826701	1052.237915
2063.170376	0.090736	0.826701	1135.442871
2063.171264	0.089648	0.826701	1215.050659
2063.172210	0.089722	0.826701	1299.927368
2063.173108	0.089663	0.826701	1380.444824
2063.173998	0.089762	0.826701	1460.333008
2063.174938	0.089755	0.826701	1544.702393
2063.175848	0.089718	0.826701	1626.345825
2063.176748	0.089641	0.826701	1707.022827
2063.177636	0.089656	0.826701	1786.637207
2063.178589	0.089810	0.826701	1872.225708
2064.172629	1.071804	0.843011	474.809235
2064.173525	0.650339	0.843011	1057.513306
2064.174488	0.091791	0.843011	1145.907837
2064.175390	0.089692	0.843011	1226.810303
2064.176286	0.089670	0.843011	1307.155029
2064.177175	0.089685	0.843011	1386.885010
2064.178122	0.089725	0.843011	1471.854858
2064.179035	0.089751	0.843011	1553.797485
2064.179935	0.089729	0.843011	1634.553589
2064.180826	0.089736	0.843011	1714.508667
2064.181753	0.089861	0.843011	1797.809692
2064.182657	0.089733	0.843011	1878.927979
2065.205603	1.099453	0.836631	504.648956
2065.206517	0.602930	0.836631	1055.726685
2065.207406	0.092040	0.836631	1137.550049
2065.208344	0.089700	0.836631	1221.688354
2065.209259	0.089663	0.836631	1303.730103
2065.210154	0.089740	0.836631	1384.047363
2065.211084	0.089799	0.836631	1467.560059
2065.211996	0.089707	0.836631	1549.372925
2065.212896	0.089700	0.836631	1630.102661
2065.213784	0.089729	0.836631	1709.781982
2065.214715	0.089740	0.836631	1793.329956
2065.215629	0.089696	0.836631	1875.312134
2066.207226	1.086328	0.838927	527.955505
2066.208147	0.565492	0.838927	1048.773560
2066.209052	0.091432	0.838927	1131.519409
2066.209947	0.089736	0.838927	1211.833374
2066.210875	0.089828	0.838927	1295.193604
2066.211777	0.089740	0.838927	1376.139038
2066.212685	0.089780	0.838927	1457.659546
2066.213607	0.089744	0.838927	1540.403198
2066.214493	0.089670	0.838927	1619.851196
2066.215435	0.089714	0.838927	1704.362061
2066.216332	0.089725	0.838927	1784.845703
2066.217222	0.089747	0.838927	1864.720825
2067.240822	1.086643	0.842395	521.588684
2067.241741	0.570249	0.842395	1045.647461
2067.242640	0.091615	0.842395	1128.009277
2067.243528	0.089714	0.842395	1207.675659
2067.244476	0.089784	0.842395	1292.790771
2067.245383	0.089747	0.842395	1374.191650
2067.246286	0.089692	0.842395	1455.183838
2067.247179	0.089725	0.842395	1535.308594
2067.248130	0.089729	0.842395	1620.640869
2067.249033	0.089674	0.842395	1701.616577
2067.249920	0.089718	0.842395	1781.196411
2067.250857	0.089766	0.842395	1865.306763
2068.242149	1.106122	0.838121	508.816071
2068.243056	0.602911	0.838121	1055.656738
2068.243978	0.091699	0.838121	1140.203369
2068.244881	0.089637	0.838121	1221.145996
2068.245830	0.089707	0.838121	1306.277954
2068.246741	0.089769	0.838121	1388.057739
2068.247640	0.089747	0.838121	1468.740601
2068.248582	0.089740	0.838121	1553.275635
2068.249486	0.089667	0.838121	1634.334351
2068.250375	0.089718	0.838121	1714.093628
2068.251301	0.089780	0.838121	1797.230225
2068.252210	0.089630	0.838121	1878.703979
2069.275605	1.078103	0.836014	478.677765
2069.276498	0.648790	0.836014	1058.047485
2069.277452	0.091743	0.836014	1145.570435
2069.278361	0.089685	0.836014	1227.094116
2069.279259	0.089733	0.836014	1307.674072
2069.280179	0.089725	0.836014	1390.221436
2069.281096	0.089890	0.836014	1472.650635
2069.282003	0.089740	0.836014	1554.044800
2069.282904	0.089703	0.836014	1634.867554
2069.283831	0.089843	0.836014	1718.151611
2069.284736	0.089769	0.836014	1799.392822
2069.285643	0.089835	0.836014	1880.873291
2070.277628	1.125568	0.840659	540.272400
2070.278559	0.555110	0.840659	1057.079590
2070.279454	0.091414	0.840659	1138.894775
2070.280346	0.089700	0.840659	1218.906860
2070.281287	0.089810	0.840659	1303.417725
2070.282187	0.089667	0.840659	1384.117798
2070.283075	0.089740	0.840659	1463.806885
2070.284007	0.089733	0.840659	1547.437744
2070.284909	0.089674	0.840659	1628.323730
2070.285801	0.089689	0.840659	1708.326050
2070.286715	0.089685	0.840659	1790.298218
2070.287635	0.089799	0.840659	1872.912964
2071.310554	1.087471	0.843608	485.011902
2071.311479	0.609485	0.843608	1048.785400
2071.312379	0.092007	0.843608	1131.591553
2071.313297	0.089659	0.843608	1213.898926
2071.314225	0.089810	0.843608	1297.242187
2071.315135	0.089714	0.843608	1378.882202
2071.316029	0.089777	0.843608	1459.142456
2071.316967	0.089784	0.843608	1543.359741
2071.317863	0.089758	0.843608	1623.783203
2071.318765	0.089828	0.843608	1704.807983
2071.319652	0.089700	0.843608	1784.371582
2071.320601	0.089817	0.843608	1869.607788
2072.312522	1.070094	0.843322	466.560974
2072.313482	0.588904	0.843322	1031.908691
2072.314387	0.091571	0.843322	1114.780518
2072.315293	0.089736	0.843322	1196.081665
2072.316183	0.089733	0.843322	1275.943726
2072.317116	0.089802	0.843322	1359.729248
2072.318030	0.089780	0.843322	1441.788452
2072.318924	0.089740	0.843322	1522.015991
2072.319825	0.089758	0.843322	1602.888184
2072.320749	0.089854	0.843322	1685.912842
2072.321650	0.089714	0.843322	1766.745483
2072.322547	0.089722	0.843322	1847.225830
2073.344981	1.087343	0.842871	489.304138
2073.345879	0.640532	0.842871	1064.502075
2073.346838	0.091846	0.842871	1152.582153
2073.347740	0.089667	0.842871	1233.461548
2073.348635	0.089689	0.842871	1313.732910
2073.349522	0.089670	0.842871	1393.270508
2073.350462	0.089780	0.842871	1477.663940
2073.351372	0.089762	0.842871	1559.347290
2073.352274	0.089755	0.842871	1640.306030
2073.353201	0.089843	0.842871	1723.590088
2073.354104	0.089777	0.842871	1804.658325
2073.354998	0.089674	0.842871	1884.826904
2074.348877	1.067446	0.843318	464.339111
2074.349817	0.628077	0.843318	1054.731934
2074.350725	0.091769	0.843318	1138.057983
2074.351626	0.089597	0.843318	1218.785034
2074.352514	0.089648	0.843318	1298.392822
2074.353458	0.089747	0.843318	1383.114258
2074.354353	0.089751	0.843318	1463.441406
2074.355253	0.089722	0.843318	1544.190918
2074.356139	0.089663	0.843318	1623.632446
2074.357079	0.089795	0.843318	1708.039673
2074.357984	0.089725	0.843318	1789.241089
2074.358887	0.089692	0.843318	1870.233276
2075.379144	1.065795	0.842701	465.752289
2075.380115	0.553499	0.842701	1003.199341
2075.381022	0.091351	0.842701	1086.054932
2075.381929	0.089707	0.842701	1167.419189
2075.382833	0.089711	0.842701	1248.517700
2075.383755	0.089725	0.842701	1331.244507
2075.384671	0.089685	0.842701	1413.395996
2075.385566	0.089637	0.842701	1493.621460
2075.386498	0.089736	0.842701	1577.255737
2075.387396	0.089674	0.842701	1657.783081
2075.388293	0.089707	0.842701	1738.250244
2075.389185	0.089714	0.842701	1818.275391
2076.384732	1.090767	0.842250	499.571136
2076.385624	0.632340	0.842250	1063.618530
2076.386563	0.091696	0.842250	1149.720703
2076.387469	0.089762	0.842250	1231.045044
2076.388371	0.089729	0.842250	1311.980591
2076.389258	0.089667	0.842250	1391.515015
2076.390201	0.089777	0.842250	1476.174316
2076.391107	0.089648	0.842250	1557.395752
2076.392005	0.089725	0.842250	1637.969116
2076.392953	0.089703	0.842250	1723.007935
2076.393854	0.089751	0.842250	1803.873535
2076.394751	0.089674	0.842250	1884.311157
2077.413966	1.077902	0.835930	476.432495
2077.414866	0.648937	0.835930	1060.475586
2077.415752	0.092933	0.835930	1142.814575
2077.416720	0.089740	0.835930	1229.682861
2077.417631	0.089722	0.835930	1311.419312
2077.418533	0.089656	0.835930	1392.288818
2077.419465	0.089659	0.835930	1475.851440
2077.420371	0.089725	0.835930	1557.142578
2077.421263	0.089652	0.835930	1637.112305
2077.422149	0.089663	0.835930	1716.553833
2077.423085	0.089736	0.835930	1800.546997
2077.423996	0.089769	0.835930	1882.326782
2078.420611	1.130164	0.849308	550.389648
2078.421521	0.559288	0.849308	1059.342041
2078.422446	0.091183	0.849308	1143.686157
2078.423336	0.089637	0.849308	1223.463501
2078.424272	0.089652	0.849308	1307.377930
2078.425173	0.089692	0.849308	1388.190796
2078.426061	0.089747	0.849308	1467.886475
2078.426997	0.089685	0.849308	1551.831665
2078.427905	0.089678	0.849308	1633.259033
2078.428806	0.089700	0.849308	1714.078491
2078.429721	0.089685	0.849308	1796.140381
2078.430634	0.089714	0.849308	1878.049561
2079.448277	1.073555	0.845271	479.878937
2079.449183	0.632509	0.845271	1052.931763
2079.450125	0.092611	0.845271	1140.171387
2079.451040	0.089637	0.845271	1222.189697
2079.451938	0.089725	0.845271	1302.763062
2079.452824	0.089718	0.845271	1382.253174
2079.453758	0.089722	0.845271	1466.053223
2079.454665	0.089689	0.845271	1547.400879
2079.455590	0.089714	0.845271	1630.386719
2079.456485	0.089714	0.845271	1710.681030
2079.457443	0.089707	0.845271	1796.620361
2079.458348	0.089725	0.845271	1877.821777
2080.457054	1.102771	0.857630	507.274689
2080.457964	0.605109	0.857630	1057.923584
2080.458856	0.092109	0.857630	1140.085205
2080.459814	0.089689	0.857630	1226.006958
2080.460717	0.089747	0.857630	1307.048828
2080.461616	0.089718	0.857630	1387.705322
2080.462545	0.089766	0.857630	1471.097534
2080.463445	0.089791	0.857630	1551.909668
2080.464343	0.089637	0.857630	1632.404053
2080.465228	0.089714	0.857630	1711.801270
2080.466158	0.089780	0.857630	1795.296875
2080.467066	0.089773	0.857630	1876.810669
2081.483737	1.090664	0.848808	490.798859
2081.484641	0.630505	0.848808	1060.775757
2081.485541	0.092615	0.848808	1144.129028
2081.486489	0.089817	0.848808	1229.275391
2081.487395	0.089663	0.848808	1310.510132
2081.488295	0.089685	0.848808	1391.226685
2081.489222	0.089817	0.848808	1474.486938
2081.490119	0.089780	0.848808	1555.019897
2081.491021	0.089714	0.848808	1635.942261
2081.491908	0.089740	0.848808	1715.541626
2081.492846	0.089703	0.848808	1799.683350
2081.493748	0.089740	0.848808	1880.628784
2082.493153	1.097637	0.852949	498.327118
2082.494080	0.592361	0.852949	1047.445557
2082.494973	0.091996	0.852949	1129.597900
2082.495909	0.089722	0.852949	1213.577393
2082.496810	0.089725	0.852949	1294.419922
2082.497720	0.089678	0.852949	1376.026611
2082.498618	0.089751	0.852949	1456.623047
2082.499562	0.089689	0.852949	1541.289185
2082.500472	0.089696	0.852949	1622.912598
2082.501372	0.089762	0.852949	1703.698364
2082.502301	0.089755	0.852949	1787.080444
2082.503202	0.089784	0.852949	1867.975708
2083.519449	1.084123	0.851846	483.519073
2083.520375	0.615062	0.851846	1053.066650
2083.521267	0.092161	0.851846	1135.273926
2083.522202	0.089689	0.851846	1219.132935
2083.523112	0.089780	0.851846	1300.833008
2083.524020	0.089667	0.851846	1382.250366
2083.524907	0.089700	0.851846	1461.813965
2083.525841	0.089769	0.851846	1545.658447
2083.526743	0.089780	0.851846	1626.640259
2083.527658	0.089692	0.851846	1708.708740
2083.528550	0.089692	0.851846	1788.714355
2083.529496	0.089802	0.851846	1873.667236
2084.527699	1.066033	0.857066	473.318542
2084.528599	0.653580	0.857066	1061.540771
2084.529527	0.092882	0.857066	1147.735352
2084.530452	0.089645	0.857066	1230.656738
2084.531355	0.089652	0.857066	1311.612549
2084.532243	0.089780	0.857066	1391.337402
2084.533170	0.089806	0.857066	1474.587524
2084.534093	0.089689	0.857066	1557.370239
2084.535017	0.089729	0.857066	1640.279785
2084.535903	0.089714	0.857066	1719.766724
2084.536847	0.089685	0.857066	1804.429443
2084.537742	0.089733	0.857066	1884.740234
2085.554251	1.065956	0.862235	463.690765
2085.555183	0.639031	0.862235	1059.267456
2085.556109	0.091930	0.862235	1144.394531
2085.557025	0.089703	0.862235	1226.562866
2085.557919	0.089740	0.862235	1306.790405
2085.558810	0.089817	0.862235	1386.817261
2085.559738	0.089766	0.862235	1470.119751
2085.560646	0.089773	0.862235	1551.633545
2085.561560	0.089692	0.862235	1633.612427
2085.562451	0.089674	0.862235	1713.511963
2085.563401	0.089766	0.862235	1798.789307
2085.564297	0.089722	0.862235	1879.179932
2086.563917	1.066611	0.855801	468.242401
2086.564814	0.652537	0.855801	1053.567749
2086.565781	0.091381	0.855801	1141.932861
2086.566683	0.089593	0.855801	1222.746216
2086.567582	0.089711	0.855801	1303.396118
2086.568495	0.089777	0.855801	1385.362183
2086.569398	0.089729	0.855801	1466.387451
2086.570296	0.089689	0.855801	1546.927979
2086.571193	0.089692	0.855801	1627.382080
2086.572121	0.089729	0.855801	1710.650635
2086.573026	0.089780	0.855801	1791.901733
2086.573932	0.089722	0.855801	1873.189575
2087.589845	1.076583	0.859217	480.156128
2087.590743	0.650790	0.859217	1064.565430
2087.591666	0.092930	0.859217	1150.339478
2087.592595	0.089736	0.859217	1233.704590
2087.593506	0.089722	0.859217	1315.441040
2087.594405	0.089663	0.859217	1396.048096
2087.595327	0.089744	0.859217	1478.791748
2087.596234	0.089736	0.859217	1560.182617
2087.597135	0.089667	0.859217	1640.972412
2087.598024	0.089597	0.859217	1720.624268
2087.598960	0.089769	0.859217	1804.648315
2087.599870	0.089736	0.859217	1886.308350
2088.598666	1.142900	0.859951	572.593140
2088.599589	0.522517	0.859951	1054.876465
2088.600491	0.091044	0.859951	1136.997925
2088.601380	0.089652	0.859951	1216.698608
2088.602321	0.089802	0.859951	1301.202515
2088.603232	0.089634	0.859951	1382.858887
2088.604128	0.089667	0.859951	1463.200317
2088.605061	0.089681	0.859951	1546.873047
2088.605967	0.089722	0.859951	1628.160889
2088.606870	0.089659	0.859951	1709.123291
2088.607757	0.089692	0.859951	1788.680420
2088.608698	0.089777	0.859951	1873.160156
2089.625437	1.082684	0.866158	478.546509
2089.626362	0.616582	0.866158	1048.884888
2089.627263	0.091989	0.866158	1131.766602
2089.628188	0.089659	0.866158	1214.701538
2089.629100	0.089689	0.866158	1296.497681
2089.630006	0.089604	0.866158	1377.679321
2089.630902	0.089652	0.866158	1458.007568
2089.631845	0.089696	0.866158	1542.590942
2089.632744	0.089681	0.866158	1623.214478
2089.633640	0.089689	0.866158	1703.575562
2089.634527	0.089641	0.866158	1783.087280
2089.635463	0.089678	0.866158	1867.025635
2090.633187	1.100028	0.861147	502.712860
2090.634087	0.625441	0.861147	1065.609497
2090.635044	0.091963	0.861147	1153.617920
2090.635949	0.089583	0.861147	1234.690063
2090.636852	0.089725	0.861147	1315.712036
2090.637736	0.089619	0.861147	1394.935303
2090.638670	0.089714	0.861147	1478.728516
2090.639575	0.089648	0.861147	1559.860352
2090.640473	0.089674	0.861147	1640.387695
2090.641383	0.089645	0.861147	1721.964478
2090.642304	0.089707	0.861147	1804.584717
2090.643210	0.089663	0.861147	1885.819458
2091.661001	1.073027	0.855660	471.058960
2091.661974	0.539667	0.855660	996.154663
2091.662893	0.091066	0.855660	1079.843994
2091.663788	0.089619	0.855660	1160.053101
2091.664717	0.089696	0.855660	1243.380737
2091.665614	0.089799	0.855660	1323.930054
2091.666499	0.089674	0.855660	1403.291626
2091.667388	0.089674	0.855660	1483.011841
2091.668331	0.089718	0.855660	1567.615967
2091.669231	0.089652	0.855660	1648.302856
2091.670138	0.089681	0.855660	1729.643921
2091.671031	0.089648	0.855660	1809.699951
2092.667982	1.081864	0.877079	480.347626
2092.668990	0.487346	0.877079	971.592590
2092.669895	0.090740	0.877079	1053.712036
2092.670786	0.089674	0.877079	1133.611572
2092.671722	0.089780	0.877079	1217.645874
2092.672624	0.089696	0.877079	1298.551758
2092.673518	0.089685	0.877079	1378.730225
2092.674408	0.089663	0.877079	1458.530396
2092.675345	0.089751	0.877079	1542.627075
2092.676259	0.089550	0.877079	1624.475342
2092.677155	0.089656	0.877079	1704.806885
2092.678094	0.089795	0.877079	1789.124268
2093.696595	1.076470	0.865800	477.952576
2093.697499	0.639675	0.865800	1056.218994
2093.698385	0.092670	0.865800	1138.324341
2093.699352	0.089612	0.865800	1224.979004
2093.700249	0.089656	0.865800	1305.400269
2093.701136	0.089678	0.865800	1384.944458
2093.702085	0.089718	0.865800	1470.086914
2093.702976	0.089619	0.865800	1549.937622
2093.703888	0.089659	0.865800	1631.707031
2093.704786	0.089645	0.865800	1712.208008
2093.705733	0.089736	0.865800	1797.188354
2093.706641	0.089641	0.865800	1878.582520
2094.701540	1.100024	0.870944	502.711182
2094.702473	0.589094	0.870944	1052.336182
2094.703370	0.091794	0.870944	1134.675781
2094.704290	0.089634	0.870944	1217.138916
2094.705205	0.089791	0.870944	1299.297974
2094.706114	0.089645	0.870944	1380.785034
2094.707013	0.089659	0.870944	1461.388916
2094.707941	0.089777	0.870944	1544.701660
2094.708848	0.089718	0.870944	1626.075928
2094.709751	0.089725	0.870944	1707.097900
2094.710638	0.089678	0.870944	1786.642090
2094.711587	0.089744	0.870944	1871.808838
2095.732302	1.074877	0.853880	474.020599
2095.733206	0.644956	0.853880	1057.060913
2095.734106	0.092805	0.853880	1140.585571
2095.735044	0.089729	0.853880	1224.751343
2095.735951	0.089612	0.853880	1306.029297
2095.736842	0.089667	0.853880	1385.922363
2095.737777	0.089751	0.853880	1469.839478
2095.738675	0.089766	0.853880	1550.448975
2095.739581	0.089744	0.853880	1631.756714
2095.740474	0.089718	0.853880	1711.874878
2095.741419	0.089777	0.853880	1796.713745
2095.742323	0.089729	0.853880	1877.828735
2096.736714	1.066827	0.869554	467.270355
2096.737609	0.653782	0.869554	1052.405029
2096.738582	0.091366	0.869554	1141.304077
2096.739487	0.089630	0.869554	1222.419312
2096.740378	0.089722	0.869554	1302.361328
2096.741306	0.089707	0.869554	1385.609497
2096.742202	0.089722	0.869554	1466.000122
2096.743105	0.089659	0.869554	1546.962646
2096.743988	0.089667	0.869554	1626.138428
2096.744926	0.089722	0.869554	1710.297363
2096.745848	0.089689	0.869554	1792.990356
2096.746750	0.089681	0.869554	1873.882935
2097.769430	1.070684	0.866992	474.312836
2097.770331	0.646959	0.866992	1057.223145
2097.771222	0.092834	0.866992	1139.938721
2097.772191	0.089648	0.866992	1226.808105
2097.773093	0.089678	0.866992	1307.697388
2097.773985	0.089678	0.866992	1387.689941
2097.774919	0.089641	0.866992	1471.414795
2097.775843	0.089663	0.866992	1554.263428
2097.776739	0.089700	0.866992	1634.634399
2097.777629	0.089718	0.866992	1714.483398
2097.778567	0.089670	0.866992	1798.594238
2097.779461	0.089656	0.866992	1878.746460
2098.770685	1.094887	0.862923	536.494385
2098.771611	0.529552	0.862923	1026.859497
2098.772512	0.091183	0.862923	1109.015259
2098.773400	0.089641	0.862923	1188.616577
2098.774332	0.089747	0.862923	1272.261108
2098.775234	0.089641	0.862923	1353.117432
2098.776143	0.089714	0.862923	1434.667725
2098.777029	0.089729	0.862923	1514.167603
2098.777966	0.089758	0.862923	1598.271118
2098.778869	0.089667	0.862923	1679.240234
2098.779759	0.089707	0.862923	1759.079468
2098.780690	0.089733	0.862923	1842.620605
2099.805537	1.095853	0.861936	499.709106
2099.806436	0.629396	0.861936	1065.535889
2099.807384	0.092303	0.861936	1153.039551
2099.808288	0.089722	0.861936	1234.147949
2099.809182	0.089648	0.861936	1314.293701
2099.810072	0.089674	0.861936	1394.103638
2099.811007	0.089777	0.861936	1478.044800
2099.811903	0.089711	0.861936	1558.425537
2099.812807	0.089707	0.861936	1639.520752
2099.813711	0.089725	0.861936	1720.632446
2099.814640	0.089758	0.861936	1804.017944
2099.815549	0.089703	0.861936	1885.558350
2100.805591	1.083860	0.869465	489.904633
2100.806490	0.640411	0.869465	1065.634521
2100.807426	0.091802	0.869465	1151.561035
2100.808328	0.089623	0.869465	1232.400757
2100.809234	0.089700	0.869465	1313.668701
2100.810125	0.089597	0.869465	1393.499756
2100.811071	0.089674	0.869465	1478.331421
2100.811979	0.089656	0.869465	1559.738892
2100.812875	0.089663	0.869465	1640.077026
2100.813805	0.089718	0.869465	1723.514771
2100.814708	0.089744	0.869465	1804.553345
2100.815610	0.089663	0.869465	1885.429443
2101.841750	1.082322	0.866625	483.797821
2101.842650	0.637610	0.866625	1057.646729
2101.843572	0.092593	0.866625	1143.017212
2101.844495	0.089696	0.866625	1225.806641
2101.845398	0.089590	0.866625	1306.706299
2101.846290	0.089681	0.866625	1386.702148
2101.847232	0.089755	0.866625	1471.250977
2101.848144	0.089722	0.866625	1553.077148
2101.849039	0.089652	0.866625	1633.315796
2101.849931	0.089623	0.866625	1713.259277
2101.850871	0.089740	0.866625	1797.614868
2101.851783	0.089601	0.866625	1879.330811
2102.840523	1.073818	0.870754	475.701508
2102.841513	0.520646	0.870754	991.140747
2102.842420	0.091058	0.870754	1073.730713
2102.843312	0.089714	0.870754	1153.755859
2102.844244	0.089736	0.870754	1237.390137
2102.845152	0.089707	0.870754	1318.844116
2102.846056	0.089703	0.870754	1399.935913
2102.846952	0.089689	0.870754	1480.296997
2102.847904	0.089762	0.870754	1565.750366
2102.848810	0.089780	0.870754	1647.091309
2102.849701	0.089755	0.870754	1727.062744
2102.850622	0.089718	0.870754	1809.692993
2103.877255	1.095927	0.860450	544.675476
2103.878188	0.514164	0.860450	1024.390259
2103.879093	0.091022	0.860450	1106.764893
2103.879983	0.089689	0.860450	1186.587891
2103.880919	0.089718	0.860450	1270.563965
2103.881829	0.089663	0.860450	1352.157349
2103.882726	0.089755	0.860450	1432.667236
2103.883616	0.089689	0.860450	1512.490234
2103.884556	0.089681	0.860450	1596.790771
2103.885460	0.089626	0.860450	1677.813110
2103.886353	0.089703	0.860450	1757.918213
2103.887288	0.089678	0.860450	1841.766846
2104.876112	1.073529	0.871222	477.720459
2104.877089	0.543494	0.871222	1008.713745
2104.877989	0.091373	0.871222	1090.949707
2104.878887	0.089692	0.871222	1171.493408
2104.879782	0.089740	0.871222	1251.810669
2104.880722	0.089791	0.871222	1336.214478
2104.881627	0.089681	0.871222	1417.376099
2104.882522	0.089744	0.871222	1497.696655
2104.883454	0.089755	0.871222	1581.348022
2104.884360	0.089758	0.871222	1662.669067
2104.885263	0.089637	0.871222	1743.611694
2104.886150	0.089623	0.871222	1823.107178
2105.912266	1.066941	0.869187	464.119293
2105.913198	0.638397	0.869187	1059.105469
2105.914128	0.091501	0.869187	1144.201782
2105.915036	0.089634	0.869187	1225.589233
2105.915935	0.089718	0.869187	1306.245728
2105.916863	0.089813	0.869187	1389.592407
2105.917766	0.089711	0.869187	1470.601196
2105.918667	0.089714	0.869187	1551.433838
2105.919552	0.089696	0.869187	1630.814819
2105.920501	0.089795	0.869187	1716.030151
2105.921406	0.089692	0.869187	1797.201782
2105.922299	0.089656	0.869187	1877.264404
2106.911451	1.084457	0.872547	488.005554
2106.912356	0.630095	0.872547	1058.241699
2106.913295	0.092351	0.872547	1144.959351
2106.914208	0.089740	0.872547	1226.891968
2106.915111	0.089740	0.872547	1307.927124
2106.915997	0.089707	0.872547	1387.407593
2106.916942	0.089755	0.872547	1472.225708
2106.917847	0.089696	0.872547	1553.400635
2106.918751	0.089755	0.872547	1634.538818
2106.919639	0.089648	0.872547	1714.146606
2106.920574	0.089777	0.872547	1798.087769
2106.921482	0.089663	0.872547	1879.501831
2107.946970	1.091005	0.868060	486.588043
2107.947900	0.599473	0.868060	1044.097656
2107.948793	0.091970	0.868060	1126.227051
2107.949729	0.089725	0.868060	1210.209961
2107.950642	0.089733	0.868060	1292.135864
2107.951542	0.089740	0.868060	1372.901855
2107.952429	0.089729	0.868060	1452.491455
2107.953367	0.089795	0.868060	1536.719116
2107.954266	0.089696	0.868060	1617.355835
2107.955170	0.089659	0.868060	1698.407959
2107.956055	0.089689	0.868060	1777.782471
2107.956989	0.089758	0.868060	1861.616699
2108.947471	1.138286	0.872885	578.249329
2108.948381	0.538678	0.872885	1068.446289
2108.949285	0.091124	0.872885	1150.822632
2108.950183	0.089689	0.872885	1231.363037
2108.951126	0.089722	0.872885	1315.970581
2108.952032	0.089714	0.872885	1397.251831
2108.952920	0.089747	0.872885	1476.947510
2108.953877	0.089828	0.872885	1562.912842
2108.954779	0.089729	0.872885	1643.848389
2108.955705	0.089722	0.872885	1726.930664
2108.956602	0.089747	0.872885	1807.433960
2108.957537	0.089795	0.872885	1891.392212
2109.981904	1.068248	0.865844	474.302246
2109.982797	0.658015	0.865844	1061.909668
2109.983739	0.091769	0.865844	1148.355835
2109.984650	0.089700	0.865844	1230.072266
2109.985552	0.089729	0.865844	1311.007812
2109.986450	0.089711	0.865844	1391.567993
2109.987392	0.089843	0.865844	1476.199707
2109.988294	0.089762	0.865844	1557.165039
2109.989184	0.089689	0.865844	1636.988037
2109.990129	0.089762	0.865844	1721.813110
2109.991032	0.089681	0.865844	1802.795410
2109.991930	0.089711	0.865844	1883.355591
2110.983052	1.138059	0.880237	574.719849
2110.983965	0.533492	0.880237	1061.798340
2110.984870	0.091154	0.880237	1144.292358
2110.985791	0.089725	0.880237	1226.929443
2110.986681	0.089722	0.880237	1306.781738
2110.987645	0.089740	0.880237	1393.291138
2110.988555	0.089645	0.880237	1474.867920
2110.989447	0.089729	0.880237	1554.906250
2110.990381	0.089729	0.880237	1638.713135
2110.991291	0.089663	0.880237	1720.306519
2110.992212	0.089659	0.880237	1802.882812
2110.993099	0.089674	0.880237	1882.423706
2112.016881	1.084882	0.873719	518.573364
2112.017808	0.564950	0.873719	1042.281982
2112.018705	0.091575	0.873719	1124.424438
2112.019598	0.089630	0.873719	1204.464111
2112.020543	0.089762	0.873719	1289.289185
2112.021439	0.089711	0.873719	1369.669922
2112.022327	0.089747	0.873719	1449.365479
2112.023269	0.089802	0.873719	1533.959229
2112.024174	0.089707	0.873719	1615.144043
2112.025075	0.089795	0.873719	1696.049316
2112.025964	0.089718	0.873719	1775.808594
2112.026905	0.089813	0.873719	1860.322876
2113.019392	1.113757	0.876716	545.741089
2113.020316	0.545142	0.876716	1049.451904
2113.021217	0.091494	0.876716	1131.888184
2113.022109	0.089725	0.876716	1211.923218
2113.023060	0.089824	0.876716	1297.346069
2113.023975	0.089751	0.876716	1379.468262
2113.024865	0.089714	0.876716	1459.314087
2113.025780	0.089839	0.876716	1541.516602
2113.026695	0.089806	0.876716	1623.688965
2113.027610	0.089714	0.876716	1705.777588
2113.028506	0.089766	0.876716	1786.207642
2113.029440	0.089846	0.876716	1870.124023
2114.051784	1.066626	0.869175	463.982300
2114.052742	0.577101	0.869175	1016.844849
2114.053639	0.091765	0.869175	1099.158203
2114.054541	0.089733	0.869175	1180.097046
2114.055430	0.089755	0.869175	1259.888916
2114.056379	0.089894	0.869175	1345.198120
2114.057287	0.089766	0.869175	1426.705322
2114.058178	0.089817	0.869175	1506.732178
2114.059101	0.089850	0.869175	1589.663574
2114.060011	0.089861	0.869175	1671.436890
2114.060915	0.089802	0.869175	1752.618164
2114.061820	0.089828	0.869175	1833.912354
2115.054661	1.063901	0.879738	462.797119
2115.055596	0.639144	0.879738	1060.396973
2115.056524	0.091685	0.879738	1145.480225
2115.057432	0.089626	0.879738	1226.861084
2115.058330	0.089755	0.879738	1307.460693
2115.059264	0.089758	0.879738	1391.294922
2115.060169	0.089795	0.879738	1472.559326
2115.061073	0.089788	0.879738	1553.727295
2115.061961	0.089711	0.879738	1633.390381
2115.062896	0.089821	0.879738	1717.372559
2115.063799	0.089656	0.879738	1798.331665
2115.064691	0.089766	0.879738	1878.402588
2116.087131	1.087485	0.872732	491.543365
2116.088031	0.636445	0.872732	1064.344116
2116.088978	0.092457	0.872732	1151.901123
2116.089875	0.089711	0.872732	1232.371582
2116.090779	0.089758	0.872732	1313.513062
2116.091672	0.089740	0.872732	1393.650879
2116.092617	0.089777	0.872732	1478.489746
2116.093522	0.089747	0.872732	1559.711060
2116.094429	0.089751	0.872732	1641.115234
2116.095317	0.089740	0.872732	1720.804321
2116.096256	0.089828	0.872732	1805.152710
2116.097165	0.089656	0.872732	1886.649780
2117.089755	1.098578	0.879887	502.050079
2117.090669	0.612437	0.879887	1061.817017
2117.091555	0.092369	0.879887	1143.656250
2117.092523	0.089740	0.879887	1230.524536
2117.093422	0.089766	0.879887	1311.223877
2117.094324	0.089714	0.879887	1392.146240
2117.095210	0.089784	0.879887	1471.694824
2117.096144	0.089868	0.879887	1555.631714
2117.097051	0.089718	0.879887	1637.005981
2117.097950	0.089784	0.879887	1717.721680
2117.098876	0.089780	0.879887	1800.858154
2117.099781	0.089714	0.879887	1882.049683
2118.122234	1.111450	0.875649	540.164795
2118.123160	0.542201	0.875649	1042.242920
2118.124069	0.091381	0.875649	1125.307861
2118.124956	0.089696	0.875649	1204.868286
2118.125899	0.089828	0.875649	1289.575928
2118.126801	0.089755	0.875649	1370.534668
2118.127690	0.089733	0.875649	1450.307007
2118.128614	0.089714	0.875649	1533.203125
2118.129537	0.089755	0.875649	1616.046631
2118.130446	0.089733	0.875649	1697.613647
2118.131346	0.089700	0.875649	1778.343384
2118.132277	0.089806	0.875649	1861.952637
2119.124936	1.066853	0.885039	466.214783
2119.125833	0.649585	0.885039	1048.892456
2119.126800	0.091450	0.885039	1137.324829
2119.127705	0.089604	0.885039	1218.416870
2119.128594	0.089692	0.885039	1298.153442
2119.129522	0.089758	0.885039	1381.449097
2119.130438	0.089648	0.885039	1463.567017
2119.131351	0.089634	0.885039	1545.402710
2119.132240	0.089755	0.885039	1625.194580
2119.133182	0.089784	0.885039	1709.770996
2119.134088	0.089747	0.885039	1791.082031
2119.134974	0.089714	0.885039	1870.568970
2120.157015	1.084021	0.873546	488.893463
2120.157922	0.631234	0.873546	1061.422852
2120.158810	0.092651	0.873546	1143.697266
2120.159776	0.089656	0.873546	1230.304687
2120.160683	0.089733	0.873546	1311.692261
2120.161604	0.089703	0.873546	1394.309082
2120.162491	0.089725	0.873546	1473.895508
2120.163447	0.089670	0.873546	1559.620361
2120.164356	0.089813	0.873546	1641.260620
2120.165247	0.089788	0.873546	1721.261353
2120.166197	0.089762	0.873546	1806.535156
2120.167099	0.089703	0.873546	1887.447632
2121.159898	1.082904	0.885909	487.306793
2121.160799	0.634186	0.885909	1058.708130
2121.161738	0.092578	0.885909	1145.639038
2121.162640	0.089769	0.885909	1226.610962
2121.163547	0.089722	0.885909	1307.988525
2121.164443	0.089689	0.885909	1388.349609
2121.165376	0.089777	0.885909	1472.111206
2121.166275	0.089744	0.885909	1552.790771
2121.167180	0.089747	0.885909	1634.012085
2121.168066	0.089769	0.885909	1713.547729
2121.169017	0.089788	0.885909	1798.935791
2121.169918	0.089788	0.885909	1879.834473
2122.192731	1.088320	0.880298	486.479218
2122.193646	0.618519	0.880298	1052.424438
2122.194531	0.092435	0.880298	1134.229736
2122.195488	0.089722	0.880298	1220.093384
2122.196397	0.089744	0.880298	1301.670410
2122.197289	0.089707	0.880298	1381.689087
2122.198204	0.089722	0.880298	1463.784424
2122.199118	0.089795	0.880298	1545.856934
2122.200025	0.089766	0.880298	1627.274414
2122.200926	0.089700	0.880298	1708.093872
2122.201850	0.089788	0.880298	1791.057617
2122.202762	0.089703	0.880298	1872.867065
2123.195277	1.150877	0.888826	575.438232
2123.196201	0.522305	0.888826	1058.047729
2123.197107	0.091003	0.888826	1140.496826
2123.197996	0.089696	0.888826	1220.236572
2123.198943	0.089879	0.888826	1305.352173
2123.199850	0.089711	0.888826	1386.719727
2123.200748	0.089711	0.888826	1467.279907
2123.201695	0.089813	0.888826	1552.333008
2123.202602	0.089784	0.888826	1633.767090
2123.203505	0.089799	0.888826	1714.855225
2123.204392	0.089784	0.888826	1794.493530
2123.205320	0.089846	0.888826	1877.870850
2124.228471	1.111959	0.874372	517.061035
2124.229396	0.571256	0.874372	1045.472900
2124.230306	0.091436	0.874372	1128.679199
2124.231191	0.089663	0.874372	1208.031006
2124.232127	0.089729	0.874372	1292.017334
2124.233039	0.089648	0.874372	1373.776733
2124.233933	0.089678	0.874372	1453.948608
2124.234878	0.089729	0.874372	1538.742554
2124.235774	0.089784	0.874372	1619.188965
2124.236673	0.089711	0.874372	1699.838867
2124.237563	0.089747	0.874372	1779.713989
2124.238499	0.089835	0.874372	1863.799805
2125.231303	1.064271	0.890562	461.893768
2125.232277	0.610741	0.890562	1056.755493
2125.233185	0.091296	0.890562	1139.652588
2125.234090	0.089685	0.890562	1220.817627
2125.234986	0.089762	0.890562	1301.244385
2125.235919	0.089788	0.890562	1385.016235
2125.236825	0.089718	0.890562	1466.300781
2125.237739	0.089652	0.890562	1548.242798
2125.238629	0.089806	0.890562	1628.170044
2125.239587	0.089711	0.890562	1714.112915
2125.240485	0.089711	0.890562	1794.673096
2125.241378	0.089714	0.890562	1874.787964
2126.265035	1.074639	0.882284	471.766388
2126.266025	0.522649	0.882284	989.188843
2126.266924	0.091044	0.882284	1071.037109
2126.267815	0.089722	0.882284	1150.979126
2126.268746	0.089755	0.882284	1234.540649
2126.269655	0.089740	0.882284	1316.114258
2126.270558	0.089678	0.882284	1397.093262
2126.271443	0.089725	0.882284	1476.500244
2126.272375	0.089714	0.882284	1560.114014
2126.273278	0.089718	0.882284	1641.129395
2126.274169	0.089711	0.882284	1721.061646
2126.275110	0.089762	0.882284	1805.527588
2127.265356	1.070933	0.893494	469.068481
2127.266276	0.646509	0.893494	1063.856445
2127.267172	0.092692	0.893494	1146.908203
2127.268123	0.089718	0.893494	1232.229980
2127.269026	0.089762	0.893494	1313.285034
2127.269923	0.089773	0.893494	1393.811401
2127.270811	0.089630	0.893494	1473.402954
2127.271746	0.089857	0.893494	1557.419434
2127.272661	0.089659	0.893494	1639.457764
2127.273561	0.089725	0.893494	1720.210571
2127.274497	0.089788	0.893494	1804.251709
2127.275400	0.089810	0.893494	1885.349731
2128.300105	1.068878	0.884962	464.962006
2128.301058	0.623544	0.884962	1059.199097
2128.301971	0.091370	0.884962	1142.619629
2128.302873	0.089637	0.884962	1223.472656
2128.303764	0.089641	0.884962	1303.342896
2128.304725	0.089788	0.884962	1389.628784
2128.305629	0.089696	0.884962	1470.713989
2128.306531	0.089685	0.884962	1551.609863
2128.307421	0.089725	0.884962	1631.465454
2128.308371	0.089769	0.884962	1716.746338
2128.309281	0.089656	0.884962	1798.333130
2128.310172	0.089744	0.884962	1878.294678
2129.301233	1.121993	0.892938	531.824890
2129.302159	0.563361	0.892938	1053.496826
2129.303063	0.091439	0.892938	1136.157837
2129.303952	0.089696	0.892938	1215.897583
2129.304905	0.089729	0.892938	1301.409302
2129.305805	0.089744	0.892938	1382.178589
2129.306700	0.089806	0.892938	1462.554932
2129.307635	0.089670	0.892938	1546.396729
2129.308529	0.089755	0.892938	1626.637329
2129.309419	0.089681	0.892938	1706.453735
2129.310306	0.089729	0.892938	1786.043335
2129.311233	0.089806	0.892938	1869.293457
2130.335317	1.083387	0.878078	481.024048
2130.336226	0.634808	0.878078	1058.064819
2130.337114	0.092732	0.878078	1140.410767
2130.338069	0.089711	0.878078	1226.084473
2130.338974	0.089681	0.878078	1307.246094
2130.339867	0.089670	0.878078	1387.321777
2130.340794	0.089670	0.878078	1470.446289
2130.341702	0.089810	0.878078	1551.993408
2130.342616	0.089652	0.878078	1633.935425
2130.343514	0.089674	0.878078	1714.462769
2130.344443	0.089795	0.878078	1797.882202
2130.345351	0.089733	0.878078	1879.359497
2131.336539	1.084666	0.876273	491.353485
2131.337439	0.630806	0.876273	1059.078613
2131.338398	0.092421	0.876273	1147.709961
2131.339313	0.089601	0.876273	1229.694702
2131.340231	0.089678	0.876273	1312.018921
2131.341118	0.089678	0.876273	1391.563110
2131.342058	0.089762	0.876273	1475.939331
2131.342974	0.089656	0.876273	1558.063965
2131.343893	0.089692	0.876273	1640.491211
2131.344786	0.089736	0.876273	1720.625732
2131.345744	0.089685	0.876273	1806.544067
2131.346651	0.089670	0.876273	1887.875122
2132.370638	1.066011	0.872893	465.846680
2132.371596	0.616652	0.872893	1056.598877
2132.372490	0.091564	0.872893	1138.456787
2132.373381	0.089615	0.872893	1218.304199
2132.374306	0.089696	0.872893	1301.273071
2132.375234	0.089795	0.872893	1384.602783
2132.376139	0.089714	0.872893	1465.794312
2132.377027	0.089740	0.872893	1545.483398
2132.377971	0.089788	0.872893	1630.242920
2132.378883	0.089667	0.872893	1712.019043
2132.379783	0.089685	0.872893	1792.735596
2132.380668	0.089681	0.872893	1872.103638
2133.371104	1.086742	0.894034	485.773651
2133.372030	0.608027	0.894034	1048.807007
2133.372925	0.092025	0.894034	1131.169556
2133.373863	0.089608	0.894034	1215.222046
2133.374769	0.089769	0.894034	1296.552979
2133.375663	0.089667	0.894034	1376.715088
2133.376557	0.089667	0.894034	1456.877197
2133.377485	0.089714	0.894034	1540.132080
2133.378391	0.089714	0.894034	1621.413330
2133.379298	0.089670	0.894034	1702.744385
2133.380189	0.089692	0.894034	1782.660278
2133.381125	0.089773	0.894034	1866.687744
2134.406480	1.064681	0.884681	469.524506
2134.407380	0.661838	0.884681	1065.179077
2134.408316	0.092937	0.884681	1152.168091
2134.409235	0.089626	0.884681	1234.534790
2134.410152	0.089714	0.884681	1316.802856
2134.411050	0.089714	0.884681	1397.366333
2134.412014	0.089619	0.884681	1483.759155
2134.412920	0.089634	0.884681	1564.967407
2134.413813	0.089692	0.884681	1645.062744
2134.414748	0.089711	0.884681	1728.942261
2134.415657	0.089626	0.884681	1810.412720
2134.416572	0.089641	0.884681	1892.434326
2135.406277	1.061554	0.882239	459.652863
2135.407240	0.585509	0.882239	1023.498047
2135.408155	0.091381	0.882239	1107.111328
2135.409057	0.089674	0.882239	1187.997314
2135.409946	0.089780	0.882239	1267.812012
2135.410889	0.089755	0.882239	1352.450684
2135.411796	0.089656	0.882239	1433.768433
2135.412688	0.089667	0.882239	1513.751221
2135.413618	0.089747	0.882239	1597.216187
2135.414522	0.089780	0.882239	1678.377563
2135.415435	0.089656	0.882239	1760.233276
2135.416332	0.089674	0.882239	1840.670898
2136.441045	1.079956	0.885075	474.100708
2136.441973	0.614418	0.885075	1044.280273
2136.442870	0.092146	0.885075	1126.935181
2136.443794	0.089714	0.885075	1209.831299
2136.444699	0.089722	0.885075	1291.029419
2136.445602	0.089766	0.885075	1372.087769
2136.446493	0.089714	0.885075	1452.023315
2136.447441	0.089784	0.885075	1537.138428
2136.448350	0.089641	0.885075	1618.622192
2136.449245	0.089685	0.885075	1698.890381
2136.450174	0.089744	0.885075	1782.262207
2136.451082	0.089784	0.885075	1863.786011
