time (s)	coil I (A)	last det (V)	int current (uC)
2580.307408	1.078802	0.335346	480.067108
2580.308311	0.638683	0.335346	1056.797729
2580.309246	0.092523	0.335346	1143.306885
2580.310147	0.089689	0.335346	1224.116455
2580.311053	0.089736	0.335346	1305.417603
2580.311939	0.089784	0.335346	1384.966187
2580.312885	0.089883	0.335346	1469.995361
2580.313787	0.089714	0.335346	1550.917725
2580.314688	0.089780	0.335346	1631.809814
2580.315573	0.089751	0.335346	1711.239380
2580.316507	0.089795	0.335346	1795.107788
2580.317416	0.089729	0.335346	1876.671509
2581.308883	1.092059	0.351871	489.242554
2581.309861	0.537777	0.351871	1015.188599
2581.310765	0.091113	0.351871	1097.555054
2581.311658	0.089604	0.351871	1177.571899
2581.312587	0.089700	0.351871	1260.902954
2581.313496	0.089733	0.351871	1342.469971
2581.314397	0.089681	0.351871	1423.272949
2581.315285	0.089707	0.351871	1502.932739
2581.316229	0.089766	0.351871	1587.671509
2581.317136	0.089641	0.351871	1668.975952
2581.318029	0.089667	0.351871	1749.048340
2581.318936	0.089692	0.351871	1830.399292
2582.343650	1.096417	0.350408	495.580627
2582.344564	0.616956	0.350408	1059.478027
2582.345454	0.092230	0.350408	1141.562988
2582.346381	0.089678	0.350408	1224.694214
2582.347310	0.089663	0.350408	1307.991211
2582.348217	0.089707	0.350408	1389.355469
2582.349107	0.089685	0.350408	1469.175171
2582.350043	0.089736	0.350408	1553.168335
2582.350952	0.089714	0.350408	1634.718628
2582.351843	0.089725	0.350408	1714.663940
2582.352777	0.089769	0.350408	1798.508423
2582.353684	0.089751	0.350408	1879.912598
2583.354572	1.066824	0.363698	465.135132
2583.355467	0.664468	0.363698	1059.833740
2583.356412	0.091893	0.363698	1146.672852
2583.357324	0.089645	0.363698	1228.428833
2583.358228	0.089692	0.363698	1309.510742
2583.359116	0.089729	0.363698	1389.190063
2583.360062	0.089725	0.363698	1474.070190
2583.360959	0.089700	0.363698	1554.530884
2583.361847	0.089755	0.363698	1634.233032
2583.362796	0.089791	0.363698	1719.444946
2583.363699	0.089689	0.363698	1800.433838
2583.364596	0.089696	0.363698	1880.891235
2584.374989	1.072086	0.362755	471.717926
2584.375932	0.585949	0.362755	1024.267334
2584.376842	0.091688	0.362755	1107.703613
2584.377742	0.089641	0.362755	1188.380615
2584.378671	0.089667	0.362755	1271.681030
2584.379592	0.089755	0.362755	1354.345093
2584.380500	0.089707	0.362755	1435.799072
2584.381401	0.089740	0.362755	1516.654785
2584.382334	0.089780	0.362755	1600.419800
2584.383233	0.089736	0.362755	1681.092773
2584.384128	0.089729	0.362755	1761.400269
2584.385014	0.089707	0.362755	1840.880737
2585.387472	1.073752	0.388355	473.524811
2585.388369	0.646289	0.388355	1053.246094
2585.389314	0.091846	0.388355	1140.040283
2585.390232	0.089645	0.388355	1222.334229
2585.391133	0.089755	0.388355	1303.203125
2585.392063	0.089795	0.388355	1386.712402
2585.392970	0.089850	0.388355	1468.206177
2585.393868	0.089729	0.388355	1548.782837
2585.394755	0.089685	0.388355	1628.333496
2585.395696	0.089736	0.388355	1712.775391
2585.396602	0.089769	0.388355	1794.106323
2585.397501	0.089744	0.388355	1874.785889
2586.404553	1.065443	0.355327	462.402344
2586.405504	0.587285	0.355327	1020.910522
2586.406413	0.091626	0.355327	1104.198486
2586.407319	0.089703	0.355327	1185.469727
2586.408205	0.089707	0.355327	1264.950195
2586.409146	0.089788	0.355327	1349.440308
2586.410050	0.089674	0.355327	1430.505615
2586.410943	0.089703	0.355327	1510.610718
2586.411866	0.089751	0.355327	1593.450928
2586.412768	0.089795	0.355327	1674.445923
2586.413669	0.089744	0.355327	1755.304932
2586.414564	0.089722	0.355327	1835.605835
2587.415294	1.117050	0.386019	549.588379
2587.416221	0.541007	0.386019	1051.101929
2587.417121	0.091315	0.386019	1133.285156
2587.418008	0.089678	0.386019	1212.829346
2587.418958	0.089821	0.386019	1298.158936
2587.419856	0.089758	0.386019	1378.761841
2587.420749	0.089703	0.386019	1458.866943
2587.421666	0.089747	0.386019	1541.165283
2587.422601	0.089802	0.386019	1625.130371
2587.423512	0.089773	0.386019	1706.913574
2587.424409	0.089784	0.386019	1787.449707
2587.425348	0.089802	0.386019	1871.774048
2588.437455	1.072903	0.329171	473.150146
2588.438437	0.595232	0.329171	1057.667969
2588.439340	0.091146	0.329171	1139.973022
2588.440236	0.089670	0.329171	1220.317749
2588.441129	0.089769	0.329171	1300.481689
2588.442062	0.089854	0.329171	1384.315063
2588.442966	0.089769	0.329171	1465.466553
2588.443869	0.089766	0.329171	1546.524902
2588.444759	0.089780	0.329171	1626.429321
2588.445710	0.089810	0.329171	1711.838257
2588.446614	0.089703	0.329171	1792.930054
2588.447511	0.089707	0.329171	1873.397217
2589.449166	1.076206	0.368612	474.606873
2589.450074	0.641012	0.368612	1056.645752
2589.450962	0.092714	0.368612	1138.975464
2589.451912	0.089788	0.368612	1224.273682
2589.452821	0.089751	0.368612	1305.857300
2589.453720	0.089718	0.368612	1386.513794
2589.454606	0.089762	0.368612	1466.042847
2589.455540	0.089901	0.368612	1550.010498
2589.456448	0.089751	0.368612	1631.504395
2589.457345	0.089755	0.368612	1712.014282
2589.458273	0.089758	0.368612	1795.309937
2589.459181	0.089769	0.368612	1876.820435
2590.483915	1.067011	0.315974	467.350616
2590.484808	0.661406	0.315974	1057.986328
2590.485752	0.091860	0.315974	1144.702515
2590.486661	0.089604	0.315974	1226.152954
2590.487552	0.089685	0.315974	1306.062378
2590.488467	0.089729	0.315974	1388.164429
2590.489392	0.089674	0.315974	1471.112915
2590.490289	0.089674	0.315974	1551.550537
2590.491177	0.089714	0.315974	1631.216919
2590.492107	0.089733	0.315974	1714.668335
2590.493025	0.089703	0.315974	1797.015991
2590.493925	0.089696	0.315974	1877.742432
2591.487945	1.070768	0.376403	467.925568
2591.488925	0.536034	0.376403	993.238770
2591.489840	0.091058	0.376403	1076.557129
2591.490745	0.089725	0.376403	1157.758545
2591.491641	0.089751	0.376403	1238.175415
2591.492576	0.089751	0.376403	1322.092529
2591.493476	0.089733	0.376403	1402.851929
2591.494366	0.089725	0.376403	1482.707520
2591.495304	0.089788	0.376403	1566.928223
2591.496215	0.089736	0.376403	1648.677979
2591.497111	0.089718	0.376403	1729.065308
2591.498039	0.089828	0.376403	1812.425537
2592.526043	1.084208	0.330875	488.977692
2592.526941	0.634453	0.330875	1058.716553
2592.527873	0.092593	0.330875	1145.013062
2592.528784	0.089663	0.330875	1226.696167
2592.529690	0.089707	0.330875	1307.970703
2592.530593	0.089718	0.330875	1388.986084
2592.531521	0.089766	0.330875	1472.288574
2592.532430	0.089802	0.330875	1553.918823
2592.533334	0.089612	0.330875	1634.927856
2592.534220	0.089722	0.330875	1714.421265
2592.535166	0.089663	0.330875	1799.242554
2592.536077	0.089773	0.330875	1881.025757
2593.523152	1.067552	0.383694	468.655518
2593.524044	0.661765	0.383694	1058.949951
2593.524994	0.091729	0.383694	1146.092041
2593.525910	0.089615	0.383694	1228.179810
2593.526807	0.089678	0.383694	1308.620728
2593.527712	0.089692	0.383694	1389.792358
2593.528633	0.089777	0.383694	1472.476562
2593.529539	0.089612	0.383694	1553.664917
2593.530433	0.089751	0.383694	1633.902344
2593.531364	0.089791	0.383694	1717.498047
2593.532260	0.089766	0.383694	1797.928101
2593.533156	0.089729	0.383694	1878.325317
2594.559698	1.075723	0.316236	477.620819
2594.560590	0.653741	0.316236	1060.758179
2594.561547	0.091685	0.316236	1148.500366
2594.562443	0.089645	0.316236	1228.822021
2594.563344	0.089685	0.316236	1309.628296
2594.564248	0.089667	0.316236	1390.687012
2594.565181	0.089773	0.316236	1474.445190
2594.566083	0.089674	0.316236	1555.331177
2594.566977	0.089678	0.316236	1635.503052
2594.567918	0.089711	0.316236	1719.920776
2594.568814	0.089762	0.316236	1800.347534
2594.569711	0.089667	0.316236	1880.778564
2595.554294	1.089016	0.389737	527.083801
2595.555219	0.547925	0.389737	1033.914307
2595.556115	0.091337	0.389737	1115.751953
2595.557005	0.089586	0.389737	1195.483643
2595.557955	0.089747	0.389737	1280.743652
2595.558854	0.089656	0.389737	1361.344238
2595.559753	0.089711	0.389737	1441.994141
2595.560639	0.089740	0.389737	1521.503784
2595.561580	0.089718	0.389737	1605.928467
2595.562489	0.089641	0.389737	1687.412231
2595.563388	0.089733	0.389737	1768.081909
2595.564321	0.089678	0.389737	1851.751221
2596.592844	1.065311	0.305549	465.541046
2596.593742	0.658414	0.305549	1056.797119
2596.594704	0.091516	0.305549	1144.835571
2596.595609	0.089608	0.305549	1225.930908
2596.596509	0.089718	0.305549	1306.677124
2596.597431	0.089626	0.305549	1389.312744
2596.598347	0.089714	0.305549	1471.491089
2596.599254	0.089604	0.305549	1552.762329
2596.600144	0.089700	0.305549	1632.595093
2596.601071	0.089692	0.305549	1715.739990
2596.601976	0.089575	0.305549	1796.805542
2596.602881	0.089656	0.305549	1877.943970
2597.590225	1.072866	0.387654	475.279724
2597.591165	0.596221	0.387654	1035.727295
2597.592073	0.091692	0.387654	1118.983521
2597.592972	0.089608	0.387654	1199.541260
2597.593859	0.089645	0.387654	1279.056152
2597.594810	0.089722	0.387654	1364.381470
2597.595720	0.089604	0.387654	1445.921509
2597.596611	0.089678	0.387654	1525.824341
2597.597540	0.089733	0.387654	1609.186035
2597.598431	0.089707	0.387654	1689.114990
2597.599327	0.089659	0.387654	1769.449829
2597.600221	0.089689	0.387654	1849.631592
2598.626505	1.069720	0.312945	468.537537
2598.627400	0.650490	0.312945	1050.725586
2598.628371	0.091249	0.312945	1139.328125
2598.629277	0.089553	0.312945	1220.463379
2598.630166	0.089634	0.312945	1300.147827
2598.631097	0.089700	0.312945	1383.658203
2598.631997	0.089674	0.312945	1464.364868
2598.632894	0.089583	0.312945	1544.720337
2598.633785	0.089685	0.312945	1624.629761
2598.634718	0.089656	0.312945	1708.278564
2598.635627	0.089626	0.312945	1789.749023
2598.636524	0.089619	0.312945	1870.137451
2599.625961	1.100823	0.381519	510.781769
2599.626904	0.551906	0.381519	1031.228638
2599.627803	0.091326	0.381519	1113.330444
2599.628770	0.089641	0.381519	1200.013428
2599.629673	0.089637	0.381519	1280.956055
2599.630565	0.089700	0.381519	1360.968140
2599.631492	0.089733	0.381519	1444.150269
2599.632403	0.089645	0.381519	1525.816650
2599.633302	0.089689	0.381519	1606.446777
2599.634219	0.089696	0.381519	1688.697998
2599.635144	0.089685	0.381519	1771.656738
2599.636048	0.089634	0.381519	1852.685669
2600.659924	1.083398	0.310931	484.279114
2600.660893	0.541117	0.310931	1008.621399
2600.661791	0.091256	0.310931	1090.569336
2600.662691	0.089586	0.310931	1171.196899
2600.663580	0.089663	0.310931	1250.907349
2600.664519	0.089667	0.310931	1335.104370
2600.665429	0.089557	0.310931	1416.601074
2600.666330	0.089641	0.310931	1497.367676
2600.667265	0.089703	0.310931	1581.240356
2600.668168	0.089692	0.310931	1662.232544
2600.669071	0.089626	0.310931	1743.165283
2600.669961	0.089619	0.310931	1822.926270
2601.663435	1.082673	0.374808	475.293579
2601.664425	0.516746	0.374808	986.871704
2601.665344	0.090813	0.374808	1070.328857
2601.666249	0.089648	0.374808	1151.460693
2601.667180	0.089780	0.374808	1235.046143
2601.668076	0.089733	0.374808	1315.446655
2601.668979	0.089703	0.374808	1396.448853
2601.669864	0.089729	0.374808	1475.859009
2601.670801	0.089729	0.374808	1559.935059
2601.671701	0.089652	0.374808	1640.621948
2601.672605	0.089659	0.374808	1721.674072
2601.673495	0.089707	0.374808	1801.513306
2602.693885	1.135620	0.319459	556.453857
2602.694805	0.548774	0.319459	1061.326294
2602.695715	0.091219	0.319459	1144.336060
2602.696603	0.089722	0.319459	1224.008911
2602.697545	0.089729	0.319459	1308.533691
2602.698451	0.089685	0.319459	1389.788330
2602.699344	0.089648	0.319459	1469.844360
2602.700266	0.089670	0.319459	1552.520508
2602.701179	0.089758	0.319459	1634.469849
2602.702080	0.089670	0.319459	1715.262939
2602.702970	0.089678	0.319459	1795.076172
2602.703920	0.089802	0.319459	1880.388306
2603.698898	1.071182	0.375613	472.391113
2603.699792	0.653760	0.375613	1056.852295
2603.700748	0.091849	0.375613	1144.660278
2603.701659	0.089604	0.375613	1226.289917
2603.702550	0.089670	0.375613	1306.186279
2603.703480	0.089744	0.375613	1389.647827
2603.704386	0.089703	0.375613	1470.919067
2603.705297	0.089623	0.375613	1552.565430
2603.706192	0.089641	0.375613	1632.794189
2603.707124	0.089733	0.375613	1716.425049
2603.708030	0.089670	0.375613	1797.666504
2603.708937	0.089637	0.375613	1878.967651
2604.725704	1.062905	0.321590	460.237946
2604.726642	0.642041	0.321590	1062.472412
2604.727558	0.091622	0.321590	1146.398437
2604.728473	0.089696	0.321590	1228.470337
2604.729371	0.089700	0.321590	1309.020630
2604.730322	0.089700	0.321590	1394.325073
2604.731222	0.089725	0.321590	1475.077881
2604.732125	0.089678	0.321590	1556.056885
2604.733010	0.089685	0.321590	1635.428223
2604.733949	0.089733	0.321590	1719.687256
2604.734859	0.089696	0.321590	1801.310669
2604.735765	0.089703	0.321590	1882.581909
2605.732045	1.070775	0.359843	471.141052
2605.732942	0.644641	0.359843	1049.384033
2605.733906	0.091355	0.359843	1137.450195
2605.734815	0.089593	0.359843	1218.890625
2605.735714	0.089692	0.359843	1299.524048
2605.736644	0.089791	0.359843	1383.029907
2605.737544	0.089762	0.359843	1463.815674
2605.738439	0.089685	0.359843	1544.083740
2605.739323	0.089681	0.359843	1623.362061
2605.740257	0.089722	0.359843	1707.162109
2605.741163	0.089729	0.359843	1788.456543
2605.742060	0.089685	0.359843	1868.904053
2606.758359	1.083640	0.313070	485.470764
2606.759255	0.649417	0.313070	1067.347900
2606.760143	0.092794	0.313070	1149.749146
2606.761103	0.089648	0.313070	1235.811646
2606.762013	0.089634	0.313070	1317.378418
2606.762938	0.089667	0.313070	1400.320190
2606.763827	0.089703	0.313070	1480.066528
2606.764773	0.089652	0.313070	1564.877441
2606.765671	0.089656	0.313070	1645.388306
2606.766558	0.089722	0.313070	1724.971436
2606.767495	0.089703	0.313070	1809.023437
2606.768403	0.089656	0.313070	1890.430908
2607.771608	1.075496	0.351182	481.822021
2607.772513	0.635651	0.351182	1057.085815
2607.773441	0.092520	0.351182	1142.943970
2607.774350	0.089659	0.351182	1224.444336
2607.775251	0.089634	0.351182	1305.204346
2607.776141	0.089652	0.351182	1384.994751
2607.777082	0.089711	0.351182	1469.412476
2607.777989	0.089652	0.351182	1550.726929
2607.778886	0.089641	0.351182	1631.135010
2607.779778	0.089659	0.351182	1711.111206
2607.780707	0.089784	0.351182	1794.520508
2607.781613	0.089645	0.351182	1875.738647
2608.793081	1.102496	0.323354	536.915710
2608.794006	0.545208	0.323354	1041.232666
2608.794903	0.091377	0.323354	1123.197754
2608.795793	0.089604	0.323354	1202.945801
2608.796752	0.089769	0.323354	1289.034546
2608.797649	0.089696	0.323354	1369.491943
2608.798550	0.089692	0.323354	1450.304810
2608.799440	0.089656	0.323354	1530.098389
2608.800373	0.089744	0.323354	1613.829224
2608.801277	0.089670	0.323354	1694.891235
2608.802176	0.089766	0.323354	1775.590576
2608.803105	0.089762	0.323354	1858.979492
2609.809920	1.094923	0.363553	537.607239
2609.810846	0.542472	0.363553	1039.936279
2609.811743	0.091190	0.363553	1121.733887
2609.812633	0.089648	0.363553	1201.520996
2609.813577	0.089766	0.363553	1286.259766
2609.814492	0.089593	0.363553	1368.237793
2609.815390	0.089601	0.363553	1448.699341
2609.816317	0.089659	0.363553	1531.813599
2609.817221	0.089718	0.363553	1612.918701
2609.818126	0.089689	0.363553	1694.087036
2609.819017	0.089718	0.363553	1774.025757
2609.819956	0.089707	0.363553	1858.260620
2610.833620	1.081271	0.346904	475.759094
2610.834551	0.612499	0.346904	1045.995483
2610.835451	0.092010	0.346904	1128.804932
2610.836393	0.089652	0.346904	1213.257202
2610.837289	0.089736	0.346904	1293.660889
2610.838198	0.089755	0.346904	1375.247803
2610.839083	0.089747	0.346904	1454.674194
2610.840030	0.089821	0.346904	1539.734253
2610.840928	0.089810	0.346904	1620.383301
2610.841824	0.089703	0.346904	1700.757568
2610.842750	0.089795	0.346904	1783.907715
2610.843658	0.089777	0.346904	1865.424927
2611.842761	1.073855	0.376641	469.274597
2611.843751	0.519258	0.376641	983.339783
2611.844654	0.091106	0.376641	1065.608521
2611.845546	0.089637	0.376641	1145.565186
2611.846492	0.089714	0.376641	1230.434937
2611.847398	0.089714	0.376641	1311.716187
2611.848297	0.089696	0.376641	1392.352905
2611.849204	0.089670	0.376641	1473.683960
2611.850127	0.089766	0.376641	1556.537598
2611.851037	0.089700	0.376641	1638.164307
2611.851934	0.089630	0.376641	1718.562500
2611.852865	0.089670	0.376641	1802.045654
2612.871626	1.070248	0.361647	464.487518
2612.872581	0.629052	0.361647	1065.231689
2612.873498	0.091403	0.361647	1149.047852
2612.874400	0.089608	0.361647	1229.874390
2612.875291	0.089630	0.361647	1309.734863
2612.876247	0.089700	0.361647	1395.487793
2612.877152	0.089733	0.361647	1476.695801
2612.878056	0.089659	0.361647	1557.747925
2612.878945	0.089714	0.361647	1637.504028
2612.879893	0.089700	0.361647	1722.539307
2612.880803	0.089659	0.361647	1804.129395
2612.881694	0.089659	0.361647	1884.015991
2613.874399	1.083201	0.374703	490.689850
2613.875300	0.628872	0.374703	1057.303589
2613.876233	0.092560	0.374703	1143.661865
2613.877143	0.089645	0.374703	1225.238647
2613.878047	0.089678	0.374703	1306.307373
2613.878931	0.089711	0.374703	1385.611572
2613.879872	0.089689	0.374703	1470.008667
2613.880789	0.089681	0.374703	1552.246460
2613.881695	0.089711	0.374703	1633.524292
2613.882625	0.089722	0.374703	1716.965454
2613.883528	0.089791	0.374703	1798.046997
2613.884435	0.089711	0.374703	1879.414551
2614.911180	1.072097	0.354424	471.722748
2614.912075	0.646384	0.354424	1050.236694
2614.913039	0.091447	0.354424	1138.391113
2614.913948	0.089601	0.354424	1219.838257
2614.914845	0.089718	0.354424	1300.315308
2614.915767	0.089711	0.354424	1383.028564
2614.916666	0.089725	0.354424	1463.691650
2614.917561	0.089670	0.354424	1543.946655
2614.918446	0.089718	0.354424	1623.347046
2614.919395	0.089773	0.354424	1708.541626
2614.920295	0.089740	0.354424	1789.307617
2614.921194	0.089667	0.354424	1869.917969
2615.907039	1.097032	0.378917	503.537872
2615.907938	0.628846	0.378917	1068.870850
2615.908868	0.092479	0.378917	1154.876587
2615.909776	0.089637	0.378917	1236.267334
2615.910682	0.089648	0.378917	1317.488770
2615.911571	0.089674	0.378917	1397.208984
2615.912502	0.089729	0.378917	1480.746704
2615.913407	0.089729	0.378917	1561.951416
2615.914316	0.089670	0.378917	1643.461792
2615.915206	0.089667	0.378917	1723.265137
2615.916156	0.089729	0.378917	1808.507690
2615.917059	0.089630	0.378917	1889.443726
2616.944079	1.077744	0.359718	476.362915
2616.944972	0.655459	0.359718	1061.687744
2616.945929	0.091589	0.359718	1149.338745
2616.946842	0.089659	0.359718	1231.197754
2616.947747	0.089725	0.359718	1312.399170
2616.948635	0.089729	0.359718	1392.078491
2616.949590	0.089766	0.359718	1477.804687
2616.950497	0.089718	0.359718	1559.178955
2616.951393	0.089758	0.359718	1639.602417
2616.952331	0.089725	0.359718	1723.764771
2616.953233	0.089762	0.359718	1804.730103
2616.954130	0.089663	0.359718	1885.157837
2617.942753	1.095597	0.412880	495.209808
2617.943681	0.596338	0.412880	1048.611450
2617.944574	0.091930	0.412880	1130.704834
2617.945519	0.089656	0.412880	1215.429565
2617.946424	0.089626	0.412880	1296.541504
2617.947321	0.089623	0.412880	1376.933105
2617.948215	0.089645	0.412880	1457.075562
2617.949148	0.089758	0.412880	1540.820068
2617.950049	0.089685	0.412880	1621.626343
2617.950957	0.089692	0.412880	1703.067017
2617.951843	0.089645	0.412880	1782.492310
2617.952791	0.089700	0.412880	1867.527588
2618.977493	1.079370	0.359367	481.399078
2618.978396	0.643561	0.359367	1062.534424
2618.979286	0.092791	0.359367	1145.118042
2618.980242	0.089590	0.359367	1230.765869
2618.981144	0.089718	0.359367	1311.691528
2618.982036	0.089659	0.359367	1391.667725
2618.982983	0.089689	0.359367	1476.602905
2618.983889	0.089656	0.359367	1557.831055
2618.984780	0.089656	0.359367	1637.714355
2618.985714	0.089711	0.359367	1721.504150
2618.986627	0.089718	0.359367	1803.416748
2618.987529	0.089612	0.359367	1884.246582
2619.980003	1.093597	0.416388	494.306030
2619.980916	0.612704	0.416388	1053.704590
2619.981805	0.092278	0.416388	1135.739624
2619.982758	0.089604	0.416388	1221.132690
2619.983662	0.089604	0.416388	1302.135132
2619.984583	0.089685	0.416388	1384.735107
2619.985470	0.089630	0.416388	1464.237061
2619.986414	0.089722	0.416388	1548.934326
2619.987314	0.089769	0.416388	1629.726685
2619.988199	0.089729	0.416388	1709.136841
2619.989143	0.089634	0.416388	1793.751099
2619.990041	0.089604	0.416388	1874.215942
2621.013964	1.069420	0.355230	467.336578
2621.014856	0.652767	0.355230	1049.604980
2621.015816	0.091732	0.355230	1137.667847
2621.016728	0.089637	0.355230	1219.417236
2621.017621	0.089681	0.355230	1299.502686
2621.018555	0.089773	0.355230	1383.350586
2621.019455	0.089758	0.355230	1464.133057
2621.020354	0.089729	0.355230	1544.799438
2621.021242	0.089707	0.355230	1624.459229
2621.022176	0.089780	0.355230	1708.313965
2621.023079	0.089714	0.355230	1789.326050
2621.023981	0.089685	0.355230	1870.221924
2622.021622	1.086702	0.410539	524.876953
2622.022551	0.543014	0.410539	1029.336914
2622.023459	0.091190	0.410539	1112.137573
2622.024355	0.089630	0.410539	1192.446167
2622.025294	0.089821	0.410539	1276.787720
2622.026196	0.089692	0.410539	1357.690186
2622.027094	0.089733	0.410539	1438.270142
2622.027984	0.089722	0.410539	1518.122437
2622.028923	0.089740	0.410539	1602.388306
2622.029830	0.089733	0.410539	1683.775879
2622.030719	0.089692	0.410539	1763.512451
2622.031649	0.089744	0.410539	1846.973999
2623.046866	1.074342	0.360535	482.379608
2623.047768	0.637932	0.360535	1057.794434
2623.048711	0.092604	0.360535	1145.119751
2623.049620	0.089670	0.360535	1226.630127
2623.050527	0.089626	0.360535	1307.921387
2623.051416	0.089670	0.360535	1387.638428
2623.052365	0.089751	0.360535	1472.812134
2623.053269	0.089681	0.360535	1553.884155
2623.054166	0.089670	0.360535	1634.318481
2623.055052	0.089659	0.360535	1713.756714
2623.055993	0.089711	0.360535	1798.174438
2623.056896	0.089626	0.360535	1879.107178
2624.056825	1.110531	0.406817	537.497009
2624.057734	0.571000	0.406817	1056.535767
2624.058677	0.091685	0.406817	1142.994263
2624.059588	0.089634	0.406817	1224.650635
2624.060484	0.089685	0.406817	1305.008423
2624.061372	0.089681	0.406817	1384.645508
2624.062307	0.089747	0.406817	1468.559204
2624.063229	0.089714	0.406817	1551.275879
2624.064131	0.089696	0.406817	1632.181763
2624.065026	0.089736	0.406817	1712.495728
2624.065967	0.089703	0.406817	1796.906616
2624.066871	0.089733	0.406817	1878.024902
2625.075202	1.106847	0.378917	543.461853
2625.076134	0.533240	0.378917	1040.441284
2625.077034	0.091205	0.378917	1122.525635
2625.077955	0.089626	0.378917	1205.071655
2625.078866	0.089758	0.378917	1286.841431
2625.079775	0.089674	0.378917	1368.355225
2625.080665	0.089700	0.378917	1448.187988
2625.081593	0.089769	0.378917	1531.493896
2625.082501	0.089733	0.378917	1612.971191
2625.083404	0.089674	0.378917	1693.946899
2625.084293	0.089711	0.378917	1773.699707
2625.085236	0.089755	0.378917	1858.338379
2626.087376	1.078037	0.417097	478.648499
2626.088326	0.618772	0.417097	1066.481934
2626.089225	0.091549	0.417097	1148.784546
2626.090123	0.089524	0.417097	1229.177002
2626.091009	0.089659	0.417097	1308.615234
2626.091956	0.089678	0.417097	1393.540039
2626.092877	0.089641	0.417097	1476.099487
2626.093781	0.089670	0.417097	1557.161499
2626.094711	0.089681	0.417097	1640.565186
2626.095616	0.089769	0.417097	1721.806396
2626.096518	0.089707	0.417097	1802.722168
2626.097407	0.089652	0.417097	1882.422852
2627.108307	1.082648	0.391755	475.282318
2627.109231	0.617629	0.391755	1045.971924
2627.110132	0.092010	0.391755	1128.873413
2627.111059	0.089619	0.391755	1211.950317
2627.111973	0.089692	0.391755	1293.929199
2627.112886	0.089681	0.391755	1375.808350
2627.113782	0.089711	0.391755	1456.189087
2627.114728	0.089810	0.391755	1541.148926
2627.115627	0.089747	0.391755	1621.831787
2627.116528	0.089667	0.391755	1702.621582
2627.117414	0.089740	0.391755	1782.131226
2627.118343	0.089747	0.391755	1865.506470
2628.122073	1.093561	0.412070	491.008820
2628.122979	0.628367	0.412070	1060.309082
2628.123868	0.092542	0.412070	1142.578491
2628.124816	0.089769	0.412070	1227.679810
2628.125720	0.089700	0.412070	1308.768311
2628.126619	0.089780	0.412070	1389.480835
2628.127509	0.089659	0.412070	1469.277710
2628.128453	0.089751	0.412070	1554.002686
2628.129361	0.089681	0.412070	1635.433350
2628.130258	0.089692	0.412070	1715.887451
2628.131193	0.089729	0.412070	1799.784058
2628.132091	0.089674	0.412070	1880.311401
2629.145050	1.079268	0.376033	478.115570
2629.145970	0.614033	0.376033	1043.026123
2629.146869	0.092062	0.376033	1125.789673
2629.147806	0.089711	0.376033	1209.848633
2629.148712	0.089707	0.376033	1291.123169
2629.149614	0.089707	0.376033	1372.038940
2629.150501	0.089696	0.376033	1451.599365
2629.151457	0.089791	0.376033	1537.439819
2629.152364	0.089689	0.376033	1618.787476
2629.153260	0.089681	0.376033	1699.141968
2629.154174	0.089725	0.376033	1781.150879
2629.155077	0.089747	0.376033	1862.192749
2630.157824	1.131559	0.391030	552.200745
2630.158742	0.556088	0.391030	1062.689209
2630.159638	0.091421	0.391030	1144.602295
2630.160526	0.089583	0.391030	1224.151611
2630.161472	0.089674	0.391030	1308.983276
2630.162377	0.089634	0.391030	1390.101807
2630.163275	0.089626	0.391030	1470.586426
2630.164203	0.089700	0.391030	1553.827759
2630.165110	0.089703	0.391030	1635.188721
2630.166015	0.089634	0.391030	1716.307251
2630.166906	0.089637	0.391030	1796.174194
2630.167849	0.089718	0.391030	1880.778320
2631.184857	1.078572	0.353929	475.650116
2631.185786	0.615714	0.353929	1047.648437
2631.186677	0.092128	0.353929	1129.734253
2631.187617	0.089659	0.353929	1214.014160
2631.188517	0.089707	0.353929	1294.750488
2631.189419	0.089656	0.353929	1375.619995
2631.190312	0.089689	0.353929	1455.712036
2631.191258	0.089714	0.353929	1540.581787
2631.192169	0.089678	0.353929	1622.278198
2631.193064	0.089714	0.353929	1702.572510
2631.193989	0.089736	0.353929	1785.578613
2631.194903	0.089722	0.353929	1867.584229
2632.195041	1.093092	0.375831	497.356903
2632.195943	0.623851	0.375831	1060.070801
2632.196831	0.092399	0.375831	1142.120850
2632.197771	0.089659	0.375831	1226.400757
2632.198679	0.089740	0.375831	1307.884644
2632.199579	0.089703	0.375831	1388.617676
2632.200488	0.089670	0.375831	1470.128052
2632.201416	0.089674	0.375831	1553.345581
2632.202320	0.089557	0.375831	1634.305054
2632.203210	0.089707	0.375831	1714.144287
2632.204162	0.089722	0.375831	1799.559326
2632.205059	0.089678	0.375831	1880.000244
2633.220041	1.067172	0.355818	466.354034
2633.221013	0.548522	0.355818	999.517090
2633.221921	0.091351	0.355818	1082.464111
2633.222825	0.089542	0.355818	1163.410278
2633.223731	0.089648	0.355818	1244.631714
2633.224655	0.089707	0.355818	1327.520996
2633.225568	0.089623	0.355818	1409.346680
2633.226458	0.089681	0.355818	1489.163086
2633.227387	0.089755	0.355818	1572.545166
2633.228290	0.089648	0.355818	1653.497681
2633.229196	0.089696	0.355818	1734.762329
2633.230122	0.089678	0.355818	1817.803955
2634.226377	1.072482	0.375762	471.891907
2634.227336	0.579232	0.375762	1027.375610
2634.228253	0.091348	0.375762	1111.141357
2634.229164	0.089579	0.375762	1192.747681
2634.230060	0.089696	0.375762	1273.115356
2634.230997	0.089747	0.375762	1357.208618
2634.231906	0.089696	0.375762	1438.742310
2634.232798	0.089656	0.375762	1518.715210
2634.233729	0.089707	0.375762	1602.232422
2634.234640	0.089799	0.375762	1684.038940
2634.235547	0.089678	0.375762	1765.376709
2634.236459	0.089630	0.375762	1847.119385
2635.252947	1.080260	0.364342	481.795929
2635.253846	0.643096	0.364342	1059.938965
2635.254790	0.091956	0.364342	1146.744995
2635.255700	0.089608	0.364342	1228.288452
2635.256593	0.089696	0.364342	1308.386963
2635.257524	0.089718	0.364342	1391.914429
2635.258430	0.089685	0.364342	1473.169067
2635.259328	0.089751	0.364342	1553.765381
2635.260219	0.089703	0.364342	1633.691040
2635.261149	0.089740	0.364342	1717.149170
2635.262059	0.089645	0.364342	1798.725952
2635.262957	0.089685	0.364342	1879.263184
2636.259786	1.067842	0.381124	469.850372
2636.260679	0.657616	0.381124	1057.101440
2636.261654	0.091542	0.381124	1146.354614
2636.262547	0.089550	0.381124	1226.322388
2636.263437	0.089707	0.381124	1306.161621
2636.264361	0.089689	0.381124	1389.033936
2636.265289	0.089692	0.381124	1472.268433
2636.266188	0.089718	0.381124	1552.924927
2636.267077	0.089670	0.381124	1632.641968
2636.268023	0.089755	0.381124	1717.549805
2636.268928	0.089722	0.381124	1798.747925
2636.269823	0.089656	0.381124	1878.989868
2637.287640	1.080666	0.380794	478.735229
2637.288585	0.583795	0.380794	1030.421631
2637.289496	0.091370	0.380794	1113.659424
2637.290387	0.089586	0.380794	1193.480713
2637.291326	0.089711	0.380794	1277.718994
2637.292226	0.089641	0.380794	1358.395996
2637.293113	0.089583	0.380794	1437.855713
2637.294053	0.089634	0.380794	1522.111450
2637.294957	0.089626	0.380794	1603.133789
2637.295848	0.089696	0.380794	1683.052979
2637.296787	0.089681	0.380794	1767.263794
2637.297692	0.089736	0.380794	1848.475220
2638.295007	1.094110	0.399973	495.631897
2638.295918	0.612535	0.399973	1053.651611
2638.296804	0.092274	0.399973	1135.406494
2638.297775	0.089634	0.399973	1222.440918
2638.298680	0.089615	0.399973	1303.542969
2638.299576	0.089685	0.399973	1383.900757
2638.300508	0.089681	0.399973	1467.483887
2638.301417	0.089703	0.399973	1549.024292
2638.302309	0.089714	0.399973	1629.049561
2638.303214	0.089700	0.399973	1710.227783
2638.304140	0.089718	0.399973	1793.306641
2638.305048	0.089656	0.399973	1874.714111
2639.323870	1.091378	0.403844	486.754669
2639.324800	0.612448	0.403844	1056.330933
2639.325694	0.091919	0.403844	1138.506470
2639.326624	0.089641	0.403844	1221.872681
2639.327530	0.089696	0.403844	1303.137329
2639.328432	0.089637	0.403844	1383.990356
2639.329324	0.089696	0.403844	1463.999268
2639.330256	0.089744	0.403844	1547.640381
2639.331162	0.089681	0.403844	1628.891724
2639.332073	0.089583	0.403844	1710.501343
2639.332965	0.089634	0.403844	1790.454712
2639.333916	0.089714	0.403844	1875.773071
2640.334046	1.086339	0.411522	487.766266
2640.334966	0.612704	0.411522	1051.453857
2640.335859	0.092183	0.411522	1133.772949
2640.336788	0.089645	0.411522	1217.052979
2640.337696	0.089678	0.411522	1298.480347
2640.338603	0.089634	0.411522	1379.778198
2640.339490	0.089637	0.411522	1459.286621
2640.340431	0.089696	0.411522	1543.690552
2640.341333	0.089615	0.411522	1624.523682
2640.342230	0.089762	0.411522	1705.040161
2640.343173	0.089751	0.411522	1789.675293
2640.344072	0.089736	0.411522	1870.348267
2641.359590	1.089899	0.411756	510.072601
2641.360530	0.558424	0.411756	1034.991211
2641.361441	0.091340	0.411756	1118.202271
2641.362332	0.089608	0.411756	1198.043091
2641.363262	0.089729	0.411756	1281.491089
2641.364169	0.089696	0.411756	1362.845459
2641.365075	0.089667	0.411756	1444.083496
2641.365964	0.089678	0.411756	1523.807007
2641.366928	0.089755	0.411756	1610.330444
2641.367827	0.089667	0.411756	1690.940796
2641.368725	0.089678	0.411756	1771.471436
2641.369642	0.089700	0.411756	1853.726074
2642.368200	1.067336	0.416118	469.628021
2642.369093	0.659531	0.416118	1058.589355
2642.370088	0.091139	0.416118	1149.272583
2642.370985	0.089575	0.416118	1229.621582
2642.371892	0.089656	0.416118	1310.939331
2642.372798	0.089674	0.416118	1392.184082
2642.373715	0.089670	0.416118	1474.411865
2642.374627	0.089663	0.416118	1556.184570
2642.375527	0.089663	0.416118	1636.881348
2642.376461	0.089733	0.416118	1720.691650
2642.377361	0.089670	0.416118	1801.395020
2642.378267	0.089623	0.416118	1882.593262
2643.390422	1.082805	0.404557	477.517059
2643.391339	0.632809	0.404557	1057.802734
2643.392225	0.092629	0.404557	1139.872314
2643.393184	0.089641	0.404557	1225.838135
2643.394087	0.089689	0.404557	1306.827026
2643.394987	0.089692	0.404557	1387.550171
2643.395873	0.089685	0.404557	1467.011108
2643.396817	0.089711	0.404557	1551.697998
2643.397724	0.089634	0.404557	1632.995850
2643.398625	0.089663	0.404557	1713.782227
2643.399552	0.089744	0.404557	1796.974609
2643.400448	0.089777	0.404557	1877.414429
2644.400614	1.105968	0.414813	506.533356
2644.401526	0.605581	0.414813	1058.823364
2644.402418	0.092029	0.414813	1140.913086
2644.403377	0.089714	0.414813	1226.949097
2644.404274	0.089663	0.414813	1307.376831
2644.405176	0.089722	0.414813	1388.305786
2644.406111	0.089736	0.414813	1472.209229
2644.407023	0.089700	0.414813	1554.015381
2644.407923	0.089663	0.414813	1634.712158
2644.408815	0.089634	0.414813	1714.665527
2644.409778	0.089755	0.414813	1801.099243
2644.410675	0.089663	0.414813	1881.526978
2645.419996	1.091543	0.389068	491.194336
2645.420931	0.590826	0.389068	1043.617065
2645.421825	0.091736	0.389068	1125.628906
2645.422769	0.089615	0.389068	1210.225952
2645.423665	0.089681	0.389068	1290.580444
2645.424568	0.089659	0.389068	1371.542969
2645.425459	0.089619	0.389068	1451.393677
2645.426383	0.089733	0.389068	1534.306641
2645.427288	0.089733	0.389068	1615.514648
2645.428193	0.089681	0.389068	1696.676270
2645.429080	0.089692	0.389068	1776.233398
2645.430017	0.089780	0.389068	1860.357544
2646.433492	1.083468	0.409528	481.059784
2646.434404	0.632556	0.409528	1057.950928
2646.435291	0.092545	0.409528	1140.038452
2646.436250	0.089758	0.409528	1226.116699
2646.437146	0.089659	0.409528	1306.451538
2646.438043	0.089601	0.409528	1386.823486
2646.438929	0.089681	0.409528	1466.281250
2646.439858	0.089729	0.409528	1549.639526
2646.440769	0.089656	0.409528	1631.315918
2646.441667	0.089678	0.409528	1711.846558
2646.442613	0.089692	0.409528	1796.695557
2646.443518	0.089678	0.409528	1877.853882
2647.456485	1.089500	0.378325	493.543304
2647.457414	0.612971	0.378325	1062.993530
2647.458303	0.092040	0.378325	1144.816895
2647.459244	0.089601	0.378325	1229.131226
2647.460148	0.089648	0.378325	1310.173462
2647.461046	0.089601	0.378325	1390.635010
2647.461933	0.089667	0.378325	1470.169434
2647.462879	0.089714	0.378325	1555.039185
2647.463781	0.089659	0.378325	1635.911987
2647.464685	0.089641	0.378325	1716.947510
2647.465576	0.089623	0.378325	1796.801392
2647.466508	0.089744	0.378325	1880.442505
2648.470221	1.073683	0.401681	472.420471
2648.471124	0.649889	0.401681	1059.270142
2648.472011	0.092922	0.401681	1141.692261
2648.472967	0.089689	0.401681	1227.434692
2648.473875	0.089630	0.401681	1308.818848
2648.474768	0.089670	0.401681	1388.894531
2648.475713	0.089696	0.401681	1473.657227
2648.476605	0.089751	0.401681	1553.715088
2648.477509	0.089645	0.401681	1634.753906
2648.478401	0.089597	0.401681	1714.674561
2648.479336	0.089681	0.401681	1798.526611
2648.480240	0.089718	0.401681	1879.631714
2649.497047	1.079172	0.377241	483.469238
2649.497944	0.643524	0.377241	1060.710449
2649.498877	0.092761	0.377241	1147.256714
2649.499783	0.089678	0.377241	1228.504761
2649.500690	0.089670	0.377241	1309.835815
2649.501587	0.089810	0.377241	1390.395020
2649.502520	0.089766	0.377241	1474.146362
2649.503420	0.089821	0.377241	1554.984863
2649.504318	0.089769	0.377241	1635.597656
2649.505206	0.089733	0.377241	1715.280273
2649.506143	0.089729	0.377241	1799.356323
2649.507039	0.089696	0.377241	1879.723999
2650.509536	1.088141	0.423579	486.398956
2650.510461	0.612989	0.423579	1053.414185
2650.511348	0.092065	0.423579	1135.076172
2650.512278	0.089681	0.423579	1218.479858
2650.513191	0.089648	0.423579	1300.328857
2650.514094	0.089685	0.423579	1381.314453
2650.514985	0.089615	0.423579	1461.161865
2650.515932	0.089711	0.423579	1546.117920
2650.516830	0.089648	0.423579	1626.622192
2650.517733	0.089663	0.423579	1707.587891
2650.518635	0.089645	0.423579	1788.447510
2650.519555	0.089777	0.423579	1871.041992
2651.540680	1.066728	0.384903	466.160339
2651.541577	0.657913	0.384903	1056.307861
2651.542540	0.091538	0.384903	1144.458984
2651.543443	0.089722	0.384903	1225.477661
2651.544344	0.089744	0.384903	1306.336670
2651.545255	0.089832	0.384903	1388.173218
2651.546174	0.089813	0.384903	1470.711548
2651.547083	0.089700	0.384903	1552.248535
2651.547985	0.089678	0.384903	1633.137817
2651.548878	0.089696	0.384903	1713.236328
2651.549808	0.089784	0.384903	1796.735352
2651.550722	0.089806	0.384903	1878.817993
2652.542428	1.089243	0.431917	486.891693
2652.543352	0.613546	0.431917	1053.808350
2652.544242	0.092238	0.431917	1135.899780
2652.545159	0.089641	0.431917	1218.100708
2652.546087	0.089766	0.431917	1301.403198
2652.546992	0.089703	0.431917	1382.584717
2652.547892	0.089714	0.431917	1463.327637
2652.548834	0.089740	0.431917	1547.862671
2652.549737	0.089740	0.431917	1628.897827
2652.550640	0.089718	0.431917	1709.913208
2652.551532	0.089689	0.431917	1789.915527
2652.552471	0.089788	0.431917	1874.226074
2653.574620	1.081011	0.369128	483.211792
2653.575514	0.644868	0.369128	1059.723877
2653.576456	0.091619	0.369128	1146.028687
2653.577367	0.089604	0.369128	1227.658325
2653.578270	0.089733	0.369128	1308.686890
2653.579215	0.089813	0.369128	1393.560425
2653.580129	0.089623	0.369128	1475.475708
2653.581032	0.089700	0.369128	1556.474487
2653.581919	0.089681	0.369128	1636.021851
2653.582864	0.089725	0.369128	1720.812256
2653.583762	0.089718	0.369128	1801.379028
2653.584652	0.089707	0.369128	1881.218262
2654.569686	1.083695	0.428312	478.993225
2654.570595	0.634907	0.428312	1056.123779
2654.571484	0.092604	0.428312	1138.448486
2654.572449	0.089718	0.428312	1225.026367
2654.573361	0.089733	0.428312	1306.862549
2654.574259	0.089736	0.428312	1387.445801
2654.575185	0.089780	0.428312	1470.582275
2654.576081	0.089766	0.428312	1551.012329
2654.576984	0.089674	0.428312	1631.988037
2654.577872	0.089795	0.428312	1711.725952
2654.578795	0.089791	0.428312	1794.603271
2654.579705	0.089777	0.428312	1876.300049
2655.609092	1.138286	0.375251	557.760193
2655.610021	0.530314	0.375251	1050.421631
2655.610926	0.091069	0.375251	1132.839355
2655.611815	0.089681	0.375251	1212.566162
2655.612764	0.089795	0.375251	1297.781494
2655.613663	0.089725	0.375251	1378.444580
2655.614550	0.089766	0.375251	1458.066650
2655.615505	0.089810	0.375251	1543.834839
2655.616408	0.089733	0.375251	1624.863403
2655.617304	0.089758	0.375251	1705.286865
2655.618195	0.089802	0.375251	1785.300659
2655.619130	0.089832	0.375251	1869.293091
2656.601869	1.151697	0.417174	578.151794
2656.602794	0.521444	0.417174	1060.487549
2656.603692	0.091099	0.417174	1142.294067
2656.604577	0.089652	0.417174	1221.636230
2656.605520	0.089821	0.417174	1306.337036
2656.606417	0.089722	0.417174	1386.817383
2656.607315	0.089725	0.417174	1467.390747
2656.608238	0.089736	0.417174	1550.217407
2656.609143	0.089817	0.417174	1631.501709
2656.610048	0.089703	0.417174	1712.683228
2656.610936	0.089700	0.417174	1792.336548
2656.611892	0.089795	0.417174	1878.180542
2657.644489	1.068922	0.389644	466.050018
2657.645456	0.571432	0.389644	1018.624634
2657.646366	0.091443	0.389644	1101.837646
2657.647266	0.089652	0.389644	1182.524536
2657.648156	0.089733	0.389644	1262.386597
2657.649112	0.089722	0.389644	1348.160522
2657.650006	0.089714	0.389644	1428.365112
2657.650892	0.089670	0.389644	1507.813110
2657.651819	0.089766	0.389644	1591.025879
2657.652738	0.089758	0.389644	1673.513794
2657.653640	0.089722	0.389644	1754.442749
2657.654527	0.089608	0.389644	1833.925171
2658.641661	1.134672	0.412469	549.181030
2658.642582	0.553901	0.412469	1059.324219
2658.643480	0.091505	0.412469	1141.495850
2658.644367	0.089626	0.412469	1220.994507
2658.645318	0.089758	0.412469	1306.354614
2658.646220	0.089645	0.412469	1387.214233
2658.647117	0.089667	0.412469	1467.645264
2658.648030	0.089718	0.412469	1549.557861
2658.648928	0.089689	0.412469	1630.098389
2658.649876	0.089648	0.412469	1715.085083
2658.650788	0.089718	0.412469	1796.907959
2658.651684	0.089788	0.412469	1877.357666
2659.681482	1.066776	0.415707	466.181122
2659.682438	0.579045	0.415707	1019.748535
2659.683364	0.091234	0.415707	1104.231323
2659.684255	0.089612	0.415707	1184.075439
2659.685190	0.089828	0.415707	1268.064453
2659.686099	0.089711	0.415707	1349.611450
2659.687004	0.089718	0.415707	1430.806274
2659.687894	0.089652	0.415707	1510.596680
2659.688840	0.089784	0.415707	1595.532227
2659.689730	0.089696	0.415707	1675.361694
2659.690619	0.089681	0.415707	1755.088501
2659.691528	0.089740	0.415707	1836.662109
2660.681463	1.125293	0.409318	541.265930
2660.682387	0.552089	0.409318	1051.395752
2660.683296	0.091315	0.409318	1134.400757
2660.684183	0.089634	0.409318	1213.905884
2660.685137	0.089769	0.409318	1299.545776
2660.686048	0.089740	0.409318	1381.298950
2660.686936	0.089696	0.409318	1460.948975
2660.687827	0.089736	0.409318	1540.904053
2660.688754	0.089700	0.409318	1624.055664
2660.689659	0.089744	0.409318	1705.273682
2660.690574	0.089755	0.409318	1787.399170
2660.691478	0.089729	0.409318	1868.514160
2661.712354	1.099936	0.408440	499.371155
2661.713267	0.597231	0.408440	1044.643555
2661.714204	0.091278	0.408440	1130.171143
2661.715102	0.089626	0.408440	1210.655762
2661.716057	0.089648	0.408440	1296.270020
2661.716961	0.089667	0.408440	1377.328735
2661.717850	0.089689	0.408440	1457.062012
2661.718796	0.089751	0.408440	1541.966431
2661.719698	0.089722	0.408440	1622.895386
2661.720590	0.089744	0.408440	1702.946777
2661.721538	0.089740	0.408440	1788.020264
2661.722437	0.089689	0.408440	1868.650391
2662.718723	1.118536	0.417468	554.794006
2662.719634	0.554161	0.417468	1059.635010
2662.720552	0.091187	0.417468	1143.344238
2662.721443	0.089711	0.417468	1223.276489
2662.722403	0.089780	0.417468	1309.465576
2662.723305	0.089630	0.417468	1390.312012
2662.724196	0.089773	0.417468	1470.299683
2662.725117	0.089813	0.417468	1553.017700
2662.726032	0.089663	0.417468	1635.059448
2662.726932	0.089736	0.417468	1715.822144
2662.727825	0.089718	0.417468	1795.940308
2662.728756	0.089766	0.417468	1879.512085
2663.742933	1.082124	0.417875	484.791595
2663.743832	0.641836	0.417875	1061.802124
2663.744770	0.092424	0.417875	1148.496094
2663.745682	0.089645	0.417875	1230.252075
2663.746587	0.089689	0.417875	1311.420410
2663.747474	0.089670	0.417875	1390.958008
2663.748418	0.089828	0.417875	1475.755493
2663.749317	0.089714	0.417875	1556.408691
2663.750211	0.089751	0.417875	1636.646118
2663.751111	0.089744	0.417875	1717.415405
2663.752041	0.089788	0.417875	1800.917847
2663.752946	0.089700	0.417875	1882.096069
2664.753626	1.079008	0.422789	481.237396
2664.754525	0.641400	0.422789	1057.856079
2664.755483	0.091615	0.422789	1145.623291
2664.756375	0.089659	0.422789	1225.599487
2664.757264	0.089729	0.422789	1305.368530
2664.758198	0.089784	0.422789	1389.226685
2664.759115	0.089696	0.422789	1471.477905
2664.760020	0.089681	0.422789	1552.639526
2664.760912	0.089733	0.422789	1632.681030
2664.761839	0.089802	0.422789	1715.927734
2664.762754	0.089769	0.422789	1798.066650
2664.763646	0.089711	0.422789	1878.088623
2665.774288	1.074642	0.410894	477.141235
2665.775253	0.555641	0.410894	1013.334656
2665.776170	0.091212	0.410894	1096.976196
2665.777099	0.089659	0.410894	1180.269775
2665.777989	0.089692	0.410894	1260.095947
2665.778932	0.089659	0.410894	1344.644775
2665.779831	0.089722	0.410894	1425.304565
2665.780719	0.089696	0.410894	1504.954590
2665.781647	0.089736	0.410894	1588.229858
2665.782546	0.089663	0.410894	1668.836914
2665.783438	0.089656	0.410894	1748.809814
2665.784374	0.089703	0.410894	1832.772217
2666.786012	1.085251	0.426652	494.874664
2666.786905	0.635105	0.426652	1062.023437
2666.787861	0.092076	0.426652	1150.048462
2666.788786	0.089623	0.426652	1232.949585
2666.789687	0.089725	0.426652	1313.792114
2666.790577	0.089667	0.426652	1393.595459
2666.791527	0.089722	0.426652	1478.831055
2666.792429	0.089623	0.426652	1559.670776
2666.793320	0.089656	0.426652	1639.554077
2666.794241	0.089663	0.426652	1722.133789
2666.795150	0.089648	0.426652	1803.624268
2666.796047	0.089663	0.426652	1884.052002
2667.806922	1.070391	0.403421	468.831085
2667.807908	0.535020	0.403421	996.360352
2667.808809	0.091219	0.403421	1078.549072
2667.809712	0.089733	0.403421	1159.577637
2667.810598	0.089766	0.403421	1239.109985
2667.811541	0.089766	0.403421	1323.758911
2667.812437	0.089733	0.403421	1404.159424
2667.813326	0.089696	0.403421	1483.899170
2667.814254	0.089769	0.403421	1567.205078
2667.815160	0.089696	0.403421	1648.469727
2667.816058	0.089663	0.403421	1728.987183
2667.816972	0.089791	0.403421	1811.056396
2668.820467	1.098289	0.428260	526.080200
2668.821395	0.557501	0.428260	1043.441284
2668.822294	0.091469	0.428260	1125.671509
2668.823182	0.089597	0.428260	1205.233765
2668.824122	0.089729	0.428260	1289.578979
2668.825029	0.089652	0.428260	1370.893433
2668.825924	0.089630	0.428260	1451.112427
2668.826829	0.089626	0.428260	1532.224365
2668.827754	0.089729	0.428260	1615.223633
2668.828665	0.089670	0.428260	1696.913330
2668.829567	0.089663	0.428260	1777.789429
2668.830497	0.089700	0.428260	1861.210205
2669.841871	1.075730	0.402797	475.472656
2669.842774	0.647468	0.402797	1060.136475
2669.843712	0.092432	0.402797	1146.837402
2669.844619	0.089689	0.402797	1228.185059
2669.845526	0.089667	0.402797	1309.512817
2669.846415	0.089623	0.402797	1389.187500
2669.847362	0.089729	0.402797	1474.160889
2669.848264	0.089689	0.402797	1555.060059
2669.849155	0.089583	0.402797	1634.878052
2669.850067	0.089692	0.402797	1716.677490
2669.850994	0.089634	0.402797	1799.768066
2669.851904	0.089659	0.402797	1881.358154
2670.856956	1.115951	0.430487	547.931885
2670.857881	0.535741	0.430487	1043.492310
2670.858784	0.091252	0.430487	1125.893311
2670.859672	0.089670	0.430487	1205.520630
2670.860616	0.089747	0.430487	1290.242065
2670.861526	0.089703	0.430487	1371.872192
2670.862417	0.089641	0.430487	1451.742432
2670.863332	0.089692	0.430487	1533.810913
2670.864247	0.089755	0.430487	1615.936401
2670.865151	0.089667	0.430487	1696.995117
2670.866054	0.089736	0.430487	1778.026978
2670.866990	0.089714	0.430487	1861.999634
2671.880212	1.132515	0.409310	576.450012
2671.881137	0.514157	0.409310	1052.044800
2671.882036	0.091025	0.409310	1133.876587
2671.882924	0.089593	0.409310	1213.435669
2671.883864	0.089777	0.409310	1297.825684
2671.884765	0.089700	0.409310	1378.645142
2671.885665	0.089648	0.409310	1459.328735
2671.886592	0.089747	0.409310	1542.524536
2671.887506	0.089711	0.409310	1624.520142
2671.888410	0.089678	0.409310	1705.588867
2671.889311	0.089729	0.409310	1786.434692
2671.890259	0.089806	0.409310	1871.570679
2672.894174	1.087767	0.433291	486.232025
2672.895079	0.635405	0.433291	1061.273804
2672.895966	0.092662	0.433291	1143.465332
2672.896920	0.089659	0.433291	1229.000488
2672.897825	0.089692	0.433291	1310.172119
2672.898736	0.089755	0.433291	1391.938599
2672.899624	0.089747	0.433291	1471.634277
2672.900570	0.089813	0.433291	1556.597656
2672.901481	0.089641	0.433291	1638.260742
2672.902374	0.089711	0.433291	1718.372437
2672.903321	0.089722	0.433291	1803.338867
2672.904216	0.089736	0.433291	1883.652832
2673.915859	1.076550	0.401048	479.064850
2673.916827	0.545735	0.401048	1007.336182
2673.917728	0.091333	0.401048	1089.627197
2673.918631	0.089630	0.401048	1170.563232
2673.919518	0.089747	0.401048	1250.169067
2673.920453	0.089795	0.401048	1334.127319
2673.921359	0.089692	0.401048	1415.388672
2673.922256	0.089747	0.401048	1495.891968
2673.923178	0.089747	0.401048	1578.639038
2673.924082	0.089824	0.401048	1659.840088
2673.924978	0.089722	0.401048	1740.230713
2673.925869	0.089700	0.401048	1820.153198
2674.928589	1.069420	0.436739	468.406006
2674.929483	0.645370	0.436739	1045.366699
2674.930449	0.091450	0.436739	1133.707642
2674.931357	0.089637	0.436739	1215.098389
2674.932255	0.089692	0.436739	1295.642090
2674.933182	0.089703	0.436739	1378.797119
2674.934085	0.089714	0.436739	1459.809204
2674.934981	0.089670	0.436739	1540.153931
2674.935871	0.089714	0.436739	1619.999756
2674.936802	0.089751	0.436739	1703.557861
2674.937706	0.089714	0.436739	1784.659668
2674.938609	0.089696	0.436739	1865.655151
2675.952068	1.067728	0.409262	464.461792
2675.953025	0.607573	0.409262	1045.909424
2675.953935	0.091315	0.409262	1129.005859
2675.954837	0.089608	0.409262	1209.832397
2675.955732	0.089707	0.409262	1290.120239
2675.956678	0.089791	0.409262	1375.062744
2675.957577	0.089740	0.409262	1455.739014
2675.958484	0.089736	0.409262	1537.129883
2675.959372	0.089692	0.409262	1616.776733
2675.960314	0.089769	0.409262	1701.339355
2675.961222	0.089707	0.409262	1782.793335
2675.962109	0.089659	0.409262	1862.321289
2676.964306	1.078934	0.444369	481.204712
2676.965208	0.640345	0.444369	1058.796387
2676.966160	0.092542	0.444369	1146.895874
2676.967070	0.089667	0.444369	1228.492676
2676.967970	0.089612	0.444369	1309.143311
2676.968859	0.089711	0.444369	1388.896118
2676.969808	0.089802	0.444369	1474.118408
2676.970704	0.089711	0.444369	1554.499146
2676.971600	0.089659	0.444369	1634.833984
2676.972487	0.089667	0.444369	1714.368408
2676.973422	0.089736	0.444369	1798.271851
2676.974332	0.089645	0.444369	1879.848633
2677.986300	1.123704	0.414938	548.367371
2677.987230	0.537869	0.414938	1048.585205
2677.988134	0.091282	0.414938	1131.103882
2677.989024	0.089692	0.414938	1210.930054
2677.989973	0.089850	0.414938	1296.197510
2677.990880	0.089747	0.414938	1377.598389
2677.991770	0.089777	0.414938	1457.499512
2677.992698	0.089795	0.414938	1540.829224
2677.993609	0.089806	0.414938	1622.642456
2677.994518	0.089744	0.414938	1704.219482
2677.995416	0.089681	0.414938	1784.753418
2677.996345	0.089821	0.414938	1868.196777
2678.998474	1.071061	0.453328	469.124634
2678.999427	0.603596	0.453328	1044.351807
2679.000327	0.091707	0.453328	1126.887695
2679.001229	0.089678	0.453328	1207.776978
2679.002117	0.089777	0.453328	1287.498657
2679.003055	0.089784	0.453328	1371.715942
2679.003956	0.089773	0.453328	1452.601318
2679.004865	0.089755	0.453328	1534.188232
2679.005764	0.089755	0.453328	1614.877686
2679.006709	0.089758	0.453328	1699.699219
2679.007618	0.089674	0.453328	1781.212891
2679.008514	0.089725	0.453328	1861.606812
2680.019938	1.102767	0.426777	501.759155
2680.020869	0.590837	0.426777	1051.828735
2680.021762	0.091897	0.426777	1133.892700
2680.022651	0.089645	0.426777	1213.586914
2680.023597	0.089729	0.426777	1298.470581
2680.024492	0.089663	0.426777	1378.718994
2680.025413	0.089637	0.426777	1461.275146
2680.026313	0.089681	0.426777	1541.988403
2680.027258	0.089751	0.426777	1626.803101
2680.028160	0.089674	0.426777	1707.689087
2680.029052	0.089722	0.426777	1787.720825
2680.029970	0.089758	0.426777	1870.118896
2681.032644	1.063920	0.457461	460.677216
2681.033606	0.571941	0.457461	1010.884399
2681.034525	0.091282	0.457461	1094.772339
2681.035456	0.089670	0.457461	1178.255493
2681.036347	0.089696	0.457461	1258.174683
2681.037308	0.089714	0.457461	1344.390137
2681.038212	0.089659	0.457461	1425.442261
2681.039102	0.089780	0.457461	1505.346680
2681.040040	0.089718	0.457461	1589.502197
2681.040948	0.089689	0.457461	1670.939575
2681.041841	0.089736	0.457461	1751.074097
2681.042748	0.089718	0.457461	1832.448364
2682.056197	1.106243	0.426177	549.802612
2682.057119	0.536415	0.426177	1044.377075
2682.058018	0.091252	0.426177	1126.412964
2682.058909	0.089648	0.426177	1206.289673
2682.059856	0.089773	0.426177	1291.304687
2682.060773	0.089733	0.426177	1373.589600
2682.061676	0.089729	0.426177	1454.614868
2682.062569	0.089700	0.426177	1534.716675
2682.063513	0.089656	0.426177	1619.351685
2682.064411	0.089626	0.426177	1699.836304
2682.065304	0.089652	0.426177	1779.895630
2682.066231	0.089744	0.426177	1863.088013
2683.069715	1.150785	0.449130	577.694031
2683.070643	0.522378	0.449130	1062.460693
2683.071541	0.091051	0.449130	1144.224487
2683.072432	0.089696	0.449130	1224.143677
2683.073367	0.089751	0.449130	1308.060791
2683.074273	0.089725	0.449130	1389.351929
2683.075162	0.089766	0.449130	1469.153564
2683.076102	0.089821	0.449130	1553.584839
2683.077010	0.089685	0.449130	1635.018921
2683.077910	0.089729	0.449130	1715.775024
2683.078833	0.089747	0.449130	1798.611816
2683.079740	0.089817	0.449130	1880.075684
2684.093402	1.096399	0.436010	494.475922
2684.094319	0.612792	0.436010	1056.405884
2684.095205	0.092260	0.436010	1138.147827
2684.096161	0.089755	0.436010	1223.953247
2684.097068	0.089641	0.436010	1305.257690
2684.097959	0.089656	0.436010	1385.140991
2684.098898	0.089696	0.436010	1469.365601
2684.099790	0.089733	0.436010	1549.407104
2684.100689	0.089685	0.436010	1630.033936
2684.101575	0.089659	0.436010	1709.472168
2684.102510	0.089744	0.436010	1793.382446
2684.103415	0.089777	0.436010	1874.630249
2685.105879	1.079799	0.444627	475.111389
2685.106800	0.631783	0.444627	1056.983887
2685.107699	0.092227	0.444627	1139.895508
2685.108618	0.089689	0.444627	1222.319458
2685.109528	0.089736	0.444627	1303.979492
2685.110432	0.089670	0.444627	1385.041504
2685.111326	0.089707	0.444627	1465.239624
2685.112278	0.089707	0.444627	1550.640747
2685.113177	0.089707	0.444627	1631.287354
2685.114076	0.089740	0.444627	1711.963623
2685.114968	0.089667	0.444627	1791.946411
2685.115904	0.089700	0.444627	1875.905273
2686.131656	1.082047	0.433295	473.936646
2686.132629	0.560039	0.433295	1018.854614
2686.133535	0.091472	0.433295	1101.728394
2686.134427	0.089615	0.433295	1181.665405
2686.135355	0.089718	0.433295	1264.923706
2686.136263	0.089722	0.433295	1346.390991
2686.137165	0.089659	0.433295	1427.263794
2686.138057	0.089678	0.433295	1507.256348
2686.138995	0.089777	0.433295	1591.466797
2686.139896	0.089685	0.433295	1672.273071
2686.140799	0.089626	0.433295	1753.205811
2686.141686	0.089685	0.433295	1832.756470
2687.140066	1.092601	0.440018	496.041046
2687.140965	0.631384	0.440018	1063.655518
2687.141908	0.092461	0.440018	1150.846191
2687.142813	0.089641	0.440018	1231.971436
2687.143707	0.089615	0.440018	1312.087646
2687.144598	0.089656	0.440018	1391.970947
2687.145537	0.089725	0.440018	1476.223022
2687.146438	0.089722	0.440018	1557.062256
2687.147344	0.089714	0.440018	1638.343506
2687.148234	0.089674	0.440018	1718.153442
2687.149184	0.089799	0.440018	1803.462158
2687.150085	0.089733	0.440018	1884.311279
2688.168918	1.080055	0.432356	475.224152
2688.169842	0.624034	0.432356	1051.831909
2688.170743	0.092062	0.432356	1134.779541
2688.171675	0.089663	0.432356	1218.345581
2688.172589	0.089725	0.432356	1300.354492
2688.173495	0.089681	0.432356	1381.605835
2688.174390	0.089707	0.432356	1461.893677
2688.175334	0.089751	0.432356	1546.618652
2688.176242	0.089700	0.432356	1628.066040
2688.177139	0.089711	0.432356	1708.536499
2688.178035	0.089703	0.432356	1788.910767
2688.178974	0.089799	0.432356	1873.231689
2689.170396	1.082648	0.450339	487.191467
2689.171286	0.639320	0.450339	1056.186279
2689.172221	0.091842	0.450339	1142.058594
2689.173134	0.089634	0.450339	1223.894287
2689.174037	0.089722	0.450339	1304.912964
2689.174967	0.089747	0.450339	1388.377930
2689.175872	0.089766	0.450339	1469.615845
2689.176764	0.089747	0.450339	1549.670410
2689.177654	0.089703	0.450339	1629.506470
2689.178594	0.089758	0.450339	1713.879272
2689.179503	0.089751	0.450339	1795.462891
2689.180403	0.089777	0.450339	1876.261841
2690.202078	1.095439	0.422922	497.329498
2690.203010	0.600348	0.422922	1056.853760
2690.203902	0.091904	0.422922	1138.832397
2690.204847	0.089685	0.422922	1223.584717
2690.205746	0.089751	0.422922	1304.270874
2690.206650	0.089703	0.422922	1385.362671
2690.207539	0.089762	0.422922	1465.161011
2690.208462	0.089755	0.422922	1548.004517
2690.209371	0.089744	0.422922	1629.581543
2690.210279	0.089707	0.422922	1711.035522
2690.211170	0.089670	0.422922	1790.931885
2690.212123	0.089703	0.422922	1876.419189
2691.201545	1.116083	0.469248	556.925293
2691.202469	0.523645	0.469248	1040.773193
2691.203374	0.091040	0.469248	1123.164429
2691.204262	0.089626	0.469248	1202.752686
2691.205207	0.089747	0.469248	1287.563965
2691.206106	0.089667	0.469248	1368.174316
2691.207006	0.089700	0.469248	1448.904053
2691.207912	0.089689	0.469248	1530.161987
2691.208853	0.089718	0.469248	1614.586670
2691.209760	0.089663	0.469248	1695.911133
2691.210657	0.089685	0.469248	1776.358643
2691.211590	0.089722	0.469248	1860.068970
2692.236253	1.092924	0.418568	499.466064
2692.237159	0.616659	0.418568	1058.159058
2692.238107	0.092197	0.418568	1145.562012
2692.239013	0.089813	0.418568	1226.932861
2692.239919	0.089744	0.418568	1308.240601
2692.240810	0.089714	0.418568	1388.176147
2692.241755	0.089806	0.418568	1473.042725
2692.242651	0.089802	0.418568	1553.505493
2692.243552	0.089791	0.418568	1634.407471
2692.244444	0.089791	0.418568	1714.501221
2692.245387	0.089773	0.418568	1799.157104
2692.246297	0.089795	0.418568	1880.870483
2693.238750	1.087302	0.484535	488.198700
2693.239680	0.609100	0.484535	1054.661987
2693.240569	0.092113	0.484535	1136.550537
2693.241503	0.089714	0.484535	1220.343750
2693.242410	0.089736	0.484535	1301.734619
2693.243309	0.089674	0.484535	1382.351562
2693.244198	0.089751	0.484535	1462.140137
2693.245143	0.089714	0.484535	1546.920166
2693.246046	0.089663	0.484535	1627.885986
2693.246938	0.089773	0.484535	1707.963501
2693.247875	0.089780	0.484535	1792.087646
2693.248777	0.089799	0.484535	1873.085937
2694.273733	1.067260	0.414479	464.257904
2694.274699	0.582169	0.414479	1026.633301
2694.275612	0.091545	0.414479	1110.214233
2694.276518	0.089722	0.414479	1191.502075
2694.277406	0.089758	0.414479	1271.207397
2694.278349	0.089864	0.414479	1355.949585
2694.279254	0.089810	0.414479	1437.227295
2694.280146	0.089799	0.414479	1517.327637
2694.281071	0.089751	0.414479	1600.347290
2694.281983	0.089890	0.414479	1682.327148
2694.282890	0.089740	0.414479	1763.721313
2694.283790	0.089810	0.414479	1844.549927
2695.277818	1.106609	0.480310	537.811890
2695.278746	0.542106	0.480310	1040.885986
2695.279644	0.091421	0.480310	1122.981934
2695.280534	0.089663	0.480310	1202.782104
2695.281486	0.089821	0.480310	1288.291260
2695.282386	0.089780	0.480310	1369.093506
2695.283285	0.089780	0.480310	1449.806030
2695.284198	0.089736	0.480310	1531.735352
2695.285119	0.089835	0.480310	1614.473633
2695.286028	0.089736	0.480310	1696.043945
2695.286929	0.089714	0.480310	1776.876587
2695.287865	0.089802	0.480310	1860.931519
2696.309967	1.065168	0.415035	463.348297
2696.310928	0.620665	0.415035	1059.807617
2696.311827	0.091578	0.415035	1142.136597
2696.312727	0.089663	0.415035	1222.833374
2696.313614	0.089736	0.415035	1302.429443
2696.314558	0.089839	0.415035	1387.237305
2696.315471	0.089703	0.415035	1469.136475
2696.316379	0.089806	0.415035	1550.680176
2696.317268	0.089637	0.415035	1630.367920
2696.318217	0.089766	0.415035	1715.555542
2696.319125	0.089645	0.415035	1796.953003
2696.320020	0.089758	0.415035	1877.286621
2697.315801	1.084570	0.473993	485.887482
2697.316708	0.629333	0.473993	1056.692993
2697.317648	0.092219	0.473993	1143.379028
2697.318559	0.089641	0.473993	1225.042114
2697.319459	0.089707	0.473993	1305.778442
2697.320346	0.089725	0.473993	1385.364868
2697.321291	0.089791	0.473993	1470.217651
2697.322200	0.089707	0.473993	1551.761353
2697.323091	0.089740	0.473993	1631.719727
2697.324002	0.089729	0.473993	1713.462891
2697.324920	0.089714	0.473993	1795.820679
2697.325829	0.089685	0.473993	1877.344360
2698.343111	1.064172	0.417001	461.850830
2698.344068	0.621954	0.417001	1057.061157
2698.344986	0.091439	0.417001	1141.002319
2698.345884	0.089645	0.417001	1221.503296
2698.346774	0.089718	0.417001	1301.352295
2698.347720	0.089769	0.417001	1386.274048
2698.348621	0.089784	0.417001	1467.169312
2698.349517	0.089703	0.417001	1547.543579
2698.350406	0.089762	0.417001	1627.341919
2698.351356	0.089773	0.417001	1712.626221
2698.352270	0.089604	0.417001	1794.524780
2698.353168	0.089762	0.417001	1875.130981
2699.350514	1.088544	0.474638	519.235352
2699.351453	0.537411	0.474638	1023.864136
2699.352360	0.091212	0.474638	1106.593506
2699.353261	0.089674	0.474638	1187.389893
2699.354215	0.089799	0.474638	1273.057739
2699.355114	0.089817	0.474638	1353.803101
2699.356014	0.089729	0.474638	1434.559204
2699.356902	0.089722	0.474638	1514.232056
2699.357844	0.089788	0.474638	1598.812012
2699.358741	0.089722	0.474638	1679.292358
2699.359637	0.089784	0.474638	1759.738770
2699.360563	0.089799	0.474638	1842.892212
2700.373455	1.079246	0.419788	477.026550
2700.374441	0.527933	0.419788	997.568848
2700.375349	0.091198	0.419788	1080.376221
2700.376242	0.089703	0.419788	1160.481323
2700.377172	0.089908	0.419788	1244.096191
2700.378074	0.089810	0.419788	1325.104370
2700.378972	0.089678	0.419788	1405.635010
2700.379862	0.089795	0.419788	1485.552490
2700.380812	0.089740	0.419788	1570.805420
2700.381715	0.089802	0.419788	1651.896851
2700.382619	0.089755	0.419788	1733.035034
2700.383509	0.089740	0.419788	1812.903564
2701.384671	1.087474	0.468482	486.101044
2701.385576	0.636874	0.468482	1062.471802
2701.386466	0.092549	0.468482	1144.840210
2701.387402	0.089707	0.468482	1228.806030
2701.388304	0.089703	0.468482	1309.718506
2701.389211	0.089725	0.468482	1391.099365
2701.390100	0.089725	0.468482	1470.865234
2701.391043	0.089788	0.468482	1555.534912
2701.391944	0.089718	0.468482	1636.370850
2701.392843	0.089696	0.468482	1717.007568
2701.393771	0.089766	0.468482	1800.310059
2701.394674	0.089846	0.468482	1881.441162
2702.406911	1.092693	0.431333	538.697571
2702.407832	0.556586	0.431333	1051.312988
2702.408738	0.091326	0.431333	1134.054077
2702.409641	0.089711	0.431333	1215.062866
2702.410575	0.089843	0.431333	1298.975830
2702.411483	0.089758	0.431333	1380.476318
2702.412385	0.089758	0.431333	1461.438354
2702.413273	0.089784	0.431333	1541.166504
2702.414217	0.089828	0.431333	1625.963989
2702.415123	0.089762	0.431333	1707.288330
2702.416016	0.089791	0.431333	1787.471924
2702.416962	0.089758	0.431333	1872.383301
2703.419599	1.069384	0.474533	470.528748
2703.420551	0.573523	0.474533	1016.522583
2703.421450	0.091707	0.474533	1098.966797
2703.422352	0.089685	0.474533	1179.862671
2703.423242	0.089685	0.474533	1259.682373
2703.424182	0.089799	0.474533	1344.093018
2703.425080	0.089777	0.474533	1424.712402
2703.425979	0.089692	0.474533	1505.345825
2703.426899	0.089821	0.474533	1587.980713
2703.427805	0.089802	0.474533	1669.341553
2703.428715	0.089718	0.474533	1750.984985
2703.429608	0.089747	0.474533	1831.129395
2704.440786	1.098754	0.434584	493.340393
2704.441776	0.515958	0.434584	1004.139038
2704.442673	0.091080	0.434584	1085.838135
2704.443567	0.089678	0.434584	1166.010010
2704.444510	0.089744	0.434584	1250.638306
2704.445405	0.089652	0.434584	1330.876953
2704.446320	0.089762	0.434584	1413.009155
2704.447217	0.089714	0.434584	1493.482910
2704.448166	0.089773	0.434584	1578.677490
2704.449073	0.089703	0.434584	1660.038452
2704.449966	0.089744	0.434584	1740.179565
2704.450888	0.089780	0.434584	1822.957031
2705.455313	1.068596	0.468261	471.250946
2705.456214	0.651914	0.468261	1058.625488
2705.457151	0.092853	0.468261	1145.628540
2705.458054	0.089667	0.468261	1226.597656
2705.458954	0.089681	0.468261	1307.310913
2705.459844	0.089700	0.468261	1387.143677
2705.460778	0.089854	0.468261	1471.066895
2705.461692	0.089692	0.468261	1553.045776
2705.462593	0.089762	0.468261	1633.921265
2705.463482	0.089769	0.468261	1713.726196
2705.464447	0.089821	0.468261	1800.403076
2705.465358	0.089769	0.468261	1882.182861
2706.476540	1.088848	0.439019	530.268799
2706.477465	0.552107	0.439019	1040.967651
2706.478362	0.091494	0.439019	1123.037842
2706.479249	0.089689	0.439019	1202.591797
2706.480203	0.089824	0.439019	1288.284058
2706.481104	0.089817	0.439019	1369.209106
2706.482006	0.089714	0.439019	1450.131470
2706.482896	0.089736	0.439019	1529.996826
2706.483848	0.089777	0.439019	1615.464111
2706.484748	0.089692	0.439019	1696.187256
2706.485646	0.089788	0.439019	1776.816528
2706.486576	0.089758	0.439019	1860.291748
2707.491545	1.090668	0.469167	491.891144
2707.492443	0.637910	0.469167	1064.734497
2707.493377	0.092084	0.469167	1150.740723
2707.494283	0.089714	0.469167	1232.021973
2707.495188	0.089795	0.469167	1313.286377
2707.496077	0.089758	0.469167	1393.081543
2707.497033	0.089883	0.469167	1479.009521
2707.497933	0.089762	0.469167	1559.795288
2707.498827	0.089832	0.469167	1640.104736
2707.499752	0.089828	0.469167	1723.195557
2707.500653	0.089886	0.469167	1804.183228
2707.501550	0.089784	0.469167	1884.719360
2708.512719	1.082256	0.449662	476.192566
2708.513704	0.526619	0.449662	994.911926
2708.514613	0.091150	0.449662	1077.767212
2708.515513	0.089608	0.449662	1158.414551
2708.516451	0.089736	0.449662	1242.587280
2708.517358	0.089780	0.449662	1324.017944
2708.518259	0.089670	0.449662	1404.811035
2708.519146	0.089689	0.449662	1484.364990
2708.520096	0.089828	0.449662	1569.701416
2708.520992	0.089766	0.449662	1650.131470
2708.521887	0.089733	0.449662	1730.442261
2708.522779	0.089755	0.449662	1810.503418
2709.526548	1.157007	0.474412	595.858459
2709.527466	0.515391	0.474412	1068.987061
2709.528365	0.091135	0.474412	1150.917603
2709.529253	0.089707	0.474412	1230.577393
2709.530185	0.089861	0.474412	1314.327637
2709.531096	0.089795	0.474412	1396.130859
2709.531995	0.089740	0.474412	1476.807129
2709.532941	0.089773	0.474412	1561.732300
2709.533839	0.089769	0.474412	1642.345093
2709.534736	0.089795	0.474412	1722.891113
2709.535626	0.089744	0.474412	1802.762939
2709.536579	0.089868	0.474412	1888.407349
2710.548180	1.077037	0.461066	478.204620
2710.549076	0.645095	0.461066	1056.209961
2710.550049	0.091274	0.461066	1145.020020
2710.550950	0.089674	0.461066	1225.816406
2710.551846	0.089722	0.461066	1306.207031
2710.552769	0.089806	0.461066	1389.097900
2710.553669	0.089883	0.461066	1469.992432
2710.554575	0.089762	0.461066	1551.316772
2710.555471	0.089784	0.461066	1631.763184
2710.556398	0.089835	0.461066	1715.040405
2710.557305	0.089824	0.461066	1796.510986
2710.558212	0.089714	0.461066	1877.881958
2711.560652	1.073892	0.482924	470.364471
2711.561558	0.650823	0.482924	1060.009888
2711.562444	0.092919	0.482924	1142.335815
2711.563411	0.089718	0.482924	1229.093140
2711.564318	0.089692	0.482924	1310.444092
2711.565216	0.089755	0.482924	1391.043701
2711.566157	0.089817	0.482924	1475.561401
2711.567060	0.089791	0.482924	1556.642944
2711.567962	0.089744	0.482924	1637.591675
2711.568848	0.089769	0.482924	1717.127319
2711.569793	0.089821	0.482924	1802.007690
2711.570695	0.089762	0.482924	1882.973022
2712.582088	1.067256	0.459008	467.458069
2712.583040	0.579379	0.459008	1019.026550
2712.583947	0.091622	0.459008	1102.127930
2712.584851	0.089714	0.459008	1183.229736
2712.585750	0.089777	0.459008	1263.938965
2712.586697	0.089861	0.459008	1349.037231
2712.587602	0.089703	0.459008	1430.218750
2712.588496	0.089736	0.459008	1510.442993
2712.589443	0.089810	0.459008	1595.492676
2712.590341	0.089751	0.459008	1676.089111
2712.591231	0.089696	0.459008	1755.918579
2712.592122	0.089762	0.459008	1835.896484
2713.595081	1.064004	0.488149	461.777710
2713.596029	0.603223	0.488149	1033.632812
2713.596933	0.091948	0.488149	1116.754028
2713.597829	0.089689	0.488149	1197.115112
2713.598718	0.089744	0.488149	1276.897217
2713.599660	0.089813	0.488149	1361.501221
2713.600560	0.089729	0.488149	1442.257324
2713.601458	0.089788	0.488149	1522.886597
2713.602365	0.089773	0.488149	1604.310669
2713.603294	0.089784	0.488149	1687.719971
2713.604197	0.089645	0.488149	1768.669189
2713.605095	0.089733	0.488149	1849.249146
2714.616787	1.076660	0.471045	474.807129
2714.617692	0.648333	0.471045	1061.548096
2714.618583	0.092780	0.471045	1144.214722
2714.619544	0.089707	0.471045	1230.423218
2714.620448	0.089729	0.471045	1311.538208
2714.621351	0.089718	0.471045	1392.553589
2714.622260	0.089766	0.471045	1474.150513
2714.623190	0.089751	0.471045	1557.618896
2714.624102	0.089689	0.471045	1639.415039
2714.624992	0.089700	0.471045	1719.247803
2714.625921	0.089773	0.471045	1802.646851
2714.626825	0.089810	0.471045	1883.834717
2715.630565	1.097139	0.486638	503.586639
2715.631464	0.627506	0.486638	1067.714600
2715.632418	0.092292	0.486638	1155.761597
2715.633317	0.089762	0.486638	1236.457642
2715.634214	0.089733	0.486638	1316.947876
2715.635103	0.089733	0.486638	1396.720215
2715.636047	0.089828	0.486638	1481.517700
2715.636954	0.089777	0.486638	1562.945068
2715.637867	0.089696	0.486638	1644.837524
2715.638791	0.089751	0.486638	1727.767456
2715.639682	0.089769	0.486638	1807.751953
2715.640635	0.089762	0.486638	1893.295044
2716.650965	1.076539	0.464051	480.136505
2716.651863	0.651130	0.464051	1064.851562
2716.652747	0.093032	0.464051	1147.092041
2716.653698	0.089707	0.464051	1232.403442
2716.654608	0.089740	0.464051	1314.066772
2716.655498	0.089744	0.464051	1393.938599
2716.656431	0.089799	0.464051	1477.720703
2716.657339	0.089703	0.464051	1559.171387
2716.658269	0.089747	0.464051	1642.636353
2716.659165	0.089769	0.464051	1723.069580
2716.660103	0.089736	0.464051	1807.242310
2716.661002	0.089769	0.464051	1887.944946
2717.664983	1.078982	0.496636	476.910004
2717.665881	0.640627	0.496636	1052.193481
2717.666827	0.091589	0.496636	1138.837036
2717.667732	0.089678	0.496636	1219.995361
2717.668620	0.089799	0.496636	1299.736450
2717.669545	0.089762	0.496636	1382.766235
2717.670471	0.089689	0.496636	1465.817993
2717.671366	0.089689	0.496636	1546.089355
2717.672252	0.089663	0.496636	1625.530884
2717.673197	0.089722	0.496636	1710.317871
2717.674091	0.089769	0.496636	1790.571655
2717.674981	0.089747	0.496636	1870.446777
2718.687693	1.071680	0.464684	472.610748
2718.688587	0.658187	0.464684	1061.030151
2718.689540	0.091871	0.464684	1148.583496
2718.690440	0.089670	0.464684	1229.286865
2718.691337	0.089769	0.464684	1309.809937
2718.692271	0.089784	0.464684	1393.668091
2718.693171	0.089740	0.464684	1474.434082
2718.694075	0.089733	0.464684	1555.552368
2718.694965	0.089711	0.464684	1635.394897
2718.695908	0.089773	0.464684	1720.050781
2718.696818	0.089736	0.464684	1801.710815
2718.697712	0.089722	0.464684	1881.921997
2719.701444	1.062971	0.499875	460.266479
2719.702398	0.618431	0.499875	1050.250000
2719.703313	0.091637	0.499875	1134.097778
2719.704217	0.089707	0.499875	1215.192871
2719.705107	0.089758	0.499875	1295.077759
2719.706056	0.089846	0.499875	1380.341797
2719.706965	0.089758	0.499875	1461.932129
2719.707856	0.089762	0.499875	1541.910034
2719.708788	0.089769	0.499875	1625.574951
2719.709694	0.089854	0.499875	1706.982178
2719.710598	0.089736	0.499875	1788.103760
2719.711485	0.089813	0.499875	1867.768066
2720.726516	1.115662	0.458847	532.170593
2720.727419	0.591823	0.458847	1066.586304
2720.728351	0.092054	0.458847	1152.381104
2720.729273	0.089700	0.458847	1235.084229
2720.730174	0.089663	0.458847	1315.870605
2720.731069	0.089762	0.458847	1396.207520
2720.732004	0.089758	0.458847	1480.131592
2720.732905	0.089769	0.458847	1561.013672
2720.733810	0.089762	0.458847	1642.248291
2720.734700	0.089791	0.458847	1722.162476
2720.735644	0.089835	0.458847	1806.966919
2720.736557	0.089769	0.458847	1888.926270
2721.737931	1.070750	0.514897	470.059052
2721.738905	0.549749	0.514897	1005.514160
2721.739818	0.091337	0.514897	1088.904541
2721.740714	0.089681	0.514897	1169.259033
2721.741639	0.089806	0.514897	1252.329468
2721.742540	0.089850	0.514897	1333.284180
2721.743450	0.089703	0.514897	1414.914307
2721.744348	0.089795	0.514897	1495.550171
2721.745279	0.089846	0.514897	1579.197021
2721.746187	0.089755	0.514897	1660.694214
2721.747094	0.089758	0.514897	1742.104980
2721.747982	0.089740	0.514897	1821.794067
2722.766312	1.105964	0.464957	519.803284
2722.767211	0.609738	0.464957	1067.957275
2722.768132	0.092322	0.464957	1152.985596
2722.769052	0.089751	0.464957	1235.556519
2722.769954	0.089722	0.464957	1316.485474
2722.770854	0.089733	0.464957	1397.244873
2722.771794	0.089806	0.464957	1481.662476
2722.772702	0.089769	0.464957	1563.172974
2722.773610	0.089744	0.464957	1644.660156
2722.774500	0.089725	0.464957	1724.515747
2722.775441	0.089799	0.464957	1809.016235
2722.776347	0.089707	0.464957	1890.290771
2723.771890	1.119331	0.515255	526.085571
2723.772812	0.567854	0.515255	1049.646973
2723.773717	0.091509	0.515255	1132.462402
2723.774607	0.089645	0.515255	1212.246216
2723.775540	0.089795	0.515255	1296.024902
2723.776450	0.089755	0.515255	1377.701660
2723.777340	0.089681	0.515255	1457.518066
2723.778264	0.089843	0.515255	1540.532593
2723.779173	0.089788	0.515255	1622.149536
2723.780074	0.089744	0.515255	1703.008545
2723.780962	0.089751	0.515255	1782.707397
2723.781897	0.089824	0.515255	1866.692993
2724.804047	1.074569	0.459870	469.586700
2724.805009	0.574929	0.459870	1022.668579
2724.805914	0.091692	0.459870	1105.649780
2724.806813	0.089755	0.459870	1186.339233
2724.807697	0.089780	0.459870	1265.704956
2724.808630	0.089828	0.459870	1349.514404
2724.809539	0.089799	0.459870	1431.141357
2724.810437	0.089835	0.459870	1511.813354
2724.811363	0.089784	0.459870	1594.953247
2724.812269	0.089861	0.459870	1676.367187
2724.813166	0.089762	0.459870	1756.883667
2724.814056	0.089758	0.459870	1836.768555
2725.803219	1.077686	0.519287	479.570099
2725.804111	0.654254	0.519287	1063.164795
2725.805085	0.091549	0.519287	1152.333618
2725.805988	0.089659	0.519287	1233.296143
2725.806889	0.089674	0.519287	1314.092529
2725.807795	0.089744	0.519287	1395.400269
2725.808717	0.089806	0.519287	1478.201294
2725.809625	0.089725	0.519287	1559.671875
2725.810524	0.089696	0.519287	1640.308594
2725.811461	0.089766	0.519287	1724.418945
2725.812368	0.089700	0.519287	1805.776611
2725.813269	0.089696	0.519287	1886.592773
2726.838752	1.094041	0.465352	492.318237
2726.839655	0.635702	0.465352	1066.357056
2726.840539	0.092695	0.465352	1148.299683
2726.841509	0.089777	0.465352	1235.383057
2726.842410	0.089751	0.465352	1316.248657
2726.843306	0.089875	0.465352	1396.777100
2726.844197	0.089725	0.465352	1476.722412
2726.845146	0.089791	0.465352	1561.934326
2726.846050	0.089696	0.465352	1643.019531
2726.846949	0.089828	0.465352	1723.774780
2726.847879	0.089758	0.465352	1807.250000
2726.848778	0.089832	0.465352	1888.008545
2727.833800	1.064374	0.522744	465.131378
2727.834783	0.544783	0.522744	1000.652710
2727.835685	0.091293	0.522744	1082.998779
2727.836583	0.089751	0.522744	1163.595215
2727.837468	0.089788	0.522744	1243.057251
2727.838412	0.089875	0.522744	1327.899658
2727.839323	0.089729	0.522744	1409.642822
2727.840217	0.089747	0.522744	1489.876953
2727.841139	0.089784	0.522744	1572.657715
2727.842043	0.089821	0.522744	1653.855469
2727.842958	0.089747	0.522744	1735.974243
2727.843850	0.089656	0.522744	1815.947144
2728.872416	1.097032	0.471399	503.537872
2728.873314	0.629974	0.471399	1069.254883
2728.874250	0.092618	0.471399	1155.945679
2728.875162	0.089824	0.471399	1237.865356
2728.876072	0.089656	0.471399	1319.452148
2728.876961	0.089813	0.471399	1399.296143
2728.877885	0.089839	0.471399	1482.307251
2728.878789	0.089802	0.471399	1563.488525
2728.879692	0.089788	0.471399	1644.566772
2728.880581	0.089740	0.471399	1724.345581
2728.881531	0.089872	0.471399	1809.723877
2728.882437	0.089835	0.471399	1891.114624
2729.867514	1.091294	0.517608	530.368835
2729.868440	0.553169	0.517608	1042.603271
2729.869348	0.091348	0.517608	1125.546997
2729.870240	0.089707	0.517608	1205.565674
2729.871181	0.089821	0.517608	1290.086792
2729.872091	0.089707	0.517608	1371.720215
2729.872994	0.089769	0.517608	1452.781860
2729.873884	0.089747	0.517608	1532.656982
2729.874835	0.089806	0.517608	1618.062378
2729.875750	0.089758	0.517608	1700.191162
2729.876649	0.089777	0.517608	1780.900391
2729.877577	0.089740	0.517608	1864.179077
2730.907642	1.118665	0.476269	542.552307
2730.908561	0.559204	0.476269	1056.460937
2730.909461	0.091542	0.476269	1138.848511
2730.910352	0.089670	0.476269	1218.744873
2730.911299	0.089817	0.476269	1303.801514
2730.912205	0.089824	0.476269	1385.182251
2730.913106	0.089784	0.476269	1466.077515
2730.914017	0.089766	0.476269	1547.854004
2730.914938	0.089843	0.476269	1630.598999
2730.915851	0.089769	0.476269	1712.558350
2730.916740	0.089821	0.476269	1792.408813
2730.917663	0.089839	0.476269	1875.330078
2731.903692	1.076920	0.503706	471.691040
2731.904670	0.537642	0.503706	997.504517
2731.905573	0.091230	0.503706	1079.885620
2731.906473	0.089692	0.503706	1160.608765
2731.907413	0.089817	0.503706	1245.036621
2731.908314	0.089773	0.503706	1325.921997
2731.909210	0.089736	0.503706	1406.325684
2731.910097	0.089707	0.503706	1485.895874
2731.911038	0.089843	0.503706	1570.437744
2731.911929	0.089758	0.503706	1650.412354
2731.912833	0.089711	0.503706	1731.510864
2731.913723	0.089729	0.503706	1811.369629
2732.943303	1.063052	0.486207	461.364502
2732.944276	0.557919	0.486207	1004.219421
2732.945180	0.091388	0.486207	1086.834106
2732.946083	0.089678	0.486207	1167.813110
2732.946972	0.089751	0.486207	1247.601685
2732.947905	0.089850	0.486207	1331.431641
2732.948804	0.089692	0.486207	1412.065063
2732.949699	0.089707	0.486207	1492.352905
2732.950638	0.089744	0.486207	1576.622192
2732.951538	0.089766	0.486207	1657.411255
2732.952431	0.089670	0.486207	1737.486938
2732.953320	0.089714	0.486207	1817.243042
2733.943499	1.082388	0.493764	478.415344
2733.944483	0.517127	0.493764	987.267822
2733.945392	0.091055	0.493764	1070.036499
2733.946287	0.089729	0.493764	1150.343994
2733.947212	0.089755	0.493764	1233.367065
2733.948117	0.089821	0.493764	1314.654663
2733.949015	0.089707	0.493764	1395.211548
2733.949905	0.089711	0.493764	1475.054077
2733.950847	0.089777	0.493764	1559.623657
2733.951743	0.089795	0.493764	1640.079956
2733.952647	0.089714	0.493764	1721.181763
2733.953540	0.089718	0.493764	1801.299927
2734.978521	1.084768	0.493756	489.230408
2734.979419	0.640283	0.493756	1064.204712
2734.980362	0.092670	0.493756	1151.592285
2734.981270	0.089707	0.493756	1233.046265
2734.982163	0.089780	0.493756	1313.220093
2734.983051	0.089751	0.493756	1392.918945
2734.983991	0.089810	0.493756	1477.339966
2734.984894	0.089762	0.493756	1558.395020
2734.985800	0.089802	0.493756	1639.755859
2734.986690	0.089744	0.493756	1719.627686
2734.987629	0.089824	0.493756	1803.972656
2734.988538	0.089766	0.493756	1885.569580
2735.982032	1.084823	0.502735	483.831055
2735.982934	0.640100	0.502735	1061.201294
2735.983883	0.091827	0.502735	1148.345459
2735.984783	0.089740	0.502735	1229.111450
2735.985680	0.089758	0.502735	1309.624634
2735.986568	0.089751	0.502735	1389.323486
2735.987521	0.089813	0.502735	1474.915527
2735.988418	0.089806	0.502735	1555.471436
2735.989316	0.089773	0.502735	1636.087524
2735.990254	0.089828	0.502735	1720.346069
2735.991162	0.089857	0.502735	1801.936401
2735.992061	0.089806	0.502735	1882.671875
2737.011942	1.092422	0.506232	500.329224
2737.012839	0.625195	0.506232	1061.129395
2737.013780	0.091765	0.506232	1147.480347
2737.014693	0.089729	0.506232	1229.402954
2737.015597	0.089766	0.506232	1310.551025
2737.016520	0.089736	0.506232	1393.377686
2737.017406	0.089700	0.506232	1472.851562
2737.018371	0.089744	0.506232	1559.454224
2737.019272	0.089692	0.506232	1640.267090
2737.020162	0.089744	0.506232	1720.138916
2737.021111	0.089780	0.506232	1805.340454
2737.022024	0.089751	0.506232	1887.283081
2738.017502	1.095289	0.510425	495.070801
2738.018434	0.586154	0.510425	1041.365967
2738.019325	0.091871	0.510425	1123.223389
2738.020267	0.089733	0.510425	1207.751587
2738.021174	0.089755	0.510425	1289.159058
2738.022070	0.089733	0.510425	1369.559570
2738.022961	0.089780	0.510425	1449.553833
2738.023898	0.089755	0.510425	1533.653931
2738.024814	0.089744	0.510425	1615.859131
2738.025711	0.089777	0.510425	1696.388794
2738.026629	0.089722	0.510425	1778.753296
2738.027539	0.089846	0.510425	1860.513306
2739.043330	1.096113	0.502360	541.479980
2739.044256	0.527018	0.502360	1029.498535
2739.045152	0.091190	0.502360	1111.204956
2739.046041	0.089674	0.502360	1190.925171
2739.046996	0.089824	0.502360	1276.707275
2739.047890	0.089744	0.502360	1356.938110
2739.048790	0.089648	0.502360	1437.621704
2739.049674	0.089755	0.502360	1516.964844
2739.050621	0.089718	0.502360	1601.927856
2739.051523	0.089685	0.502360	1682.823730
2739.052424	0.089707	0.502360	1763.649780
2739.053362	0.089810	0.502360	1847.891113
2740.052178	1.071475	0.517624	468.234375
2740.053112	0.635713	0.517624	1061.990234
2740.054026	0.091838	0.517624	1145.930542
2740.054938	0.089751	0.517624	1227.783447
2740.055830	0.089857	0.517624	1307.936035
2740.056760	0.089832	0.517624	1391.479370
2740.057668	0.089729	0.517624	1472.953369
2740.058568	0.089744	0.517624	1553.722656
2740.059457	0.089817	0.517624	1633.569824
2740.060401	0.089813	0.517624	1718.353516
2740.061308	0.089780	0.517624	1799.784180
2740.062210	0.089744	0.517624	1880.732910
2741.076731	1.127846	0.494312	544.749390
2741.077660	0.542428	0.494312	1048.664917
2741.078561	0.091296	0.494312	1130.922974
2741.079448	0.089656	0.494312	1210.447632
2741.080393	0.089791	0.494312	1295.300415
2741.081298	0.089758	0.494312	1376.531738
2741.082195	0.089751	0.494312	1457.038330
2741.083129	0.089725	0.494312	1540.841797
2741.084034	0.089784	0.494312	1622.096191
2741.084934	0.089703	0.494312	1702.829224
2741.085848	0.089674	0.494312	1784.791260
2741.086741	0.089762	0.494312	1864.948730
2742.086681	1.160094	0.512065	597.448425
2742.087608	0.505778	0.512065	1066.304199
2742.088507	0.090934	0.512065	1148.053711
2742.089418	0.089652	0.512065	1229.726807
2742.090313	0.089711	0.512065	1310.017822
2742.091272	0.089769	0.512065	1396.106567
2742.092175	0.089656	0.512065	1477.065674
2742.093066	0.089744	0.512065	1557.027222
2742.094005	0.089780	0.512065	1641.330933
2742.094916	0.089670	0.512065	1723.020630
2742.095835	0.089806	0.512065	1805.552246
2742.096729	0.089773	0.512065	1885.809204
2743.111147	1.098790	0.499633	505.443542
2743.112050	0.616425	0.499633	1062.074951
2743.112936	0.092406	0.499633	1143.946655
2743.113899	0.089729	0.499633	1230.355713
2743.114793	0.089714	0.499633	1310.560303
2743.115684	0.089744	0.499633	1390.521851
2743.116610	0.089736	0.499633	1473.617676
2743.117519	0.089755	0.499633	1555.204590
2743.118421	0.089747	0.499633	1636.156616
2743.119310	0.089733	0.499633	1715.928955
2743.120261	0.089890	0.499633	1801.414429
2743.121163	0.089784	0.499633	1882.399536
2744.120795	1.087266	0.510184	487.095001
2744.121704	0.627070	0.510184	1057.101929
2744.122594	0.092501	0.510184	1139.427979
2744.123555	0.089740	0.510184	1225.668091
2744.124457	0.089733	0.510184	1306.606934
2744.125355	0.089780	0.510184	1387.229614
2744.126243	0.089777	0.510184	1466.951294
2744.127181	0.089784	0.510184	1551.168579
2744.128073	0.089740	0.510184	1631.216675
2744.128966	0.089696	0.510184	1711.315186
2744.129894	0.089722	0.510184	1794.576904
2744.130800	0.089747	0.510184	1875.887939
2745.145553	1.072423	0.503162	471.866150
2745.146509	0.614092	0.503162	1058.937988
2745.147419	0.091417	0.503162	1142.127686
2745.148323	0.089637	0.503162	1223.159912
2745.149213	0.089766	0.503162	1303.051270
2745.150151	0.089747	0.503162	1387.234253
2745.151064	0.089729	0.503162	1469.156860
2745.151962	0.089659	0.503162	1549.671021
2745.152903	0.089766	0.503162	1634.140503
2745.153802	0.089700	0.503162	1714.780518
2745.154702	0.089736	0.503162	1795.543213
2745.155590	0.089648	0.503162	1875.151001
2746.158792	1.065212	0.513124	465.497803
2746.159748	0.609038	0.513124	1047.738281
2746.160665	0.091366	0.513124	1131.520874
2746.161569	0.089696	0.513124	1212.606079
2746.162459	0.089674	0.513124	1292.416016
2746.163393	0.089747	0.513124	1376.239990
2746.164305	0.089729	0.513124	1458.072876
2746.165204	0.089733	0.513124	1538.742554
2746.166092	0.089722	0.513124	1618.415405
2746.167036	0.089751	0.513124	1703.140381
2746.167936	0.089711	0.513124	1783.880005
2746.168821	0.089736	0.513124	1863.296631
2747.181025	1.102833	0.496024	502.891907
2747.181927	0.621471	0.496024	1063.458740
2747.182868	0.091589	0.496024	1149.644287
2747.183778	0.089755	0.496024	1231.321045
2747.184681	0.089714	0.496024	1312.333130
2747.185569	0.089681	0.496024	1391.970215
2747.186502	0.089733	0.496024	1475.690796
2747.187412	0.089689	0.496024	1557.307495
2747.188299	0.089729	0.496024	1636.897095
2747.189236	0.089747	0.496024	1720.990356
2747.190137	0.089674	0.496024	1801.786743
2747.191041	0.089725	0.496024	1882.898437
2748.193766	1.092202	0.520782	493.675323
2748.194669	0.633168	0.520782	1065.425781
2748.195558	0.092585	0.520782	1147.734253
2748.196501	0.089711	0.520782	1232.331421
2748.197403	0.089674	0.520782	1313.217407
2748.198304	0.089700	0.520782	1394.036865
2748.199197	0.089722	0.520782	1474.158325
2748.200136	0.089755	0.520782	1558.437988
2748.201040	0.089740	0.520782	1639.562988
2748.201928	0.089670	0.520782	1719.190308
2748.202871	0.089777	0.520782	1803.849609
2748.203778	0.089784	0.520782	1885.283691
2749.217011	1.099915	0.503408	511.460266
2749.217924	0.603882	0.503408	1062.804443
2749.218815	0.092157	0.503408	1144.916260
2749.219745	0.089762	0.503408	1228.394897
2749.220657	0.089762	0.503408	1310.257812
2749.221555	0.089751	0.503408	1390.854248
2749.222478	0.089700	0.503408	1473.647095
2749.223381	0.089725	0.503408	1554.669067
2749.224283	0.089769	0.503408	1635.640991
2749.225169	0.089751	0.503408	1715.160400
2749.226116	0.089824	0.503408	1800.223877
2749.227021	0.089773	0.503408	1881.468384
2750.229499	1.118430	0.522772	548.030762
2750.230431	0.542538	0.522772	1053.676025
2750.231324	0.091417	0.522772	1135.311646
2750.232210	0.089788	0.522772	1214.863403
2750.233158	0.089832	0.522772	1300.023682
2750.234049	0.089857	0.522772	1380.086426
2750.234935	0.089828	0.522772	1459.673950
2750.235872	0.089905	0.522772	1543.914795
2750.236774	0.089747	0.522772	1624.866821
2750.237677	0.089810	0.522772	1705.964844
2750.238565	0.089758	0.522772	1785.670166
2750.239515	0.089883	0.522772	1871.058838
2751.252711	1.091711	0.508532	495.636963
2751.253644	0.590933	0.508532	1046.977051
2751.254537	0.091846	0.508532	1128.995239
2751.255480	0.089729	0.508532	1213.609741
2751.256376	0.089850	0.508532	1294.115234
2751.257276	0.089729	0.508532	1374.871338
2751.258164	0.089773	0.508532	1454.589722
2751.259093	0.089857	0.508532	1538.067017
2751.259996	0.089832	0.508532	1619.184937
2751.260900	0.089689	0.508532	1700.263550
2751.261788	0.089791	0.508532	1779.998169
2751.262724	0.089824	0.508532	1864.073608
2752.264646	1.069424	0.530027	465.199341
2752.265628	0.548697	0.530027	1004.020264
2752.266538	0.091198	0.530027	1087.010010
2752.267437	0.089678	0.530027	1167.630249
2752.268324	0.089784	0.530027	1247.268555
2752.269277	0.089824	0.530027	1332.871094
2752.270179	0.089707	0.530027	1413.786865
2752.271077	0.089755	0.530027	1494.386475
2752.272019	0.089802	0.530027	1578.980225
2752.272922	0.089780	0.530027	1660.051758
2752.273814	0.089714	0.530027	1740.076904
2752.274704	0.089755	0.530027	1819.958496
2753.289183	1.084600	0.515432	488.069824
2753.290101	0.614989	0.515432	1052.629761
2753.290998	0.092087	0.515432	1135.232178
2753.291925	0.089707	0.515432	1218.390625
2753.292828	0.089802	0.515432	1299.482056
2753.293735	0.089733	0.515432	1380.869629
2753.294627	0.089703	0.515432	1460.885010
2753.295576	0.089824	0.515432	1546.128174
2753.296473	0.089736	0.515432	1626.621704
2753.297371	0.089722	0.515432	1707.191772
2753.298258	0.089736	0.515432	1786.787842
2753.299185	0.089795	0.515432	1870.027710
2754.300115	1.084208	0.524573	487.893494
2754.301014	0.640221	0.524573	1063.452148
2754.301951	0.092435	0.524573	1150.063965
2754.302861	0.089674	0.524573	1231.667358
2754.303763	0.089751	0.524573	1312.622803
2754.304650	0.089744	0.524573	1392.225464
2754.305590	0.089773	0.524573	1476.612061
2754.306492	0.089766	0.524573	1557.580688
2754.307382	0.089703	0.524573	1637.416748
2754.308301	0.089703	0.524573	1719.854126
2754.309230	0.089784	0.524573	1803.263428
2754.310133	0.089612	0.524573	1884.182861
2755.326177	1.096941	0.520166	500.205048
2755.327087	0.617739	0.520166	1062.347778
2755.327974	0.092340	0.520166	1144.253418
2755.328926	0.089744	0.520166	1229.689331
2755.329827	0.089663	0.520166	1310.475830
2755.330724	0.089736	0.520166	1390.969360
2755.331657	0.089777	0.520166	1474.730957
2755.332563	0.089799	0.520166	1556.088501
2755.333463	0.089674	0.520166	1636.795166
2755.334352	0.089769	0.520166	1716.600098
2755.335302	0.089810	0.520166	1801.919189
2755.336201	0.089744	0.520166	1882.598755
2756.336127	1.128776	0.518538	553.100037
2756.337030	0.572256	0.518538	1069.847046
2756.337920	0.091798	0.518538	1151.547363
2756.338874	0.089744	0.518538	1237.162842
2756.339781	0.089689	0.518538	1318.510498
2756.340681	0.089714	0.518538	1399.253418
2756.341608	0.089854	0.518538	1482.547607
2756.342512	0.089696	0.518538	1563.632812
2756.343410	0.089722	0.518538	1644.202881
2756.344298	0.089751	0.518538	1723.901733
2756.345248	0.089769	0.518538	1809.182617
2756.346149	0.089813	0.518538	1890.104370
2757.363406	1.072200	0.519493	467.479065
2757.364304	0.653577	0.519493	1054.390869
2757.365255	0.091696	0.519493	1141.593384
2757.366177	0.089689	0.519493	1224.286377
2757.367083	0.089733	0.519493	1305.584229
2757.367991	0.089696	0.519493	1387.028198
2757.368914	0.089839	0.519493	1469.949463
2757.369826	0.089681	0.519493	1551.738892
2757.370716	0.089722	0.519493	1631.591187
2757.371661	0.089799	0.519493	1716.450806
2757.372563	0.089791	0.519493	1797.442505
2757.373457	0.089751	0.519493	1877.679932
2758.370254	1.069651	0.515368	467.437439
2758.371155	0.643788	0.515368	1047.490234
2758.372103	0.091732	0.515368	1134.452393
2758.373019	0.089652	0.515368	1216.573730
2758.373910	0.089696	0.515368	1296.492920
2758.374858	0.089769	0.515368	1381.594238
2758.375761	0.089762	0.515368	1462.649292
2758.376656	0.089659	0.515368	1542.894531
2758.377547	0.089725	0.515368	1622.839844
2758.378484	0.089777	0.515368	1706.960571
2758.379392	0.089769	0.515368	1788.471069
2758.380293	0.089659	0.515368	1869.254272
2759.400397	1.073097	0.516295	471.089539
2759.401363	0.600747	0.516295	1051.411255
2759.402268	0.091520	0.516295	1134.236694
2759.403166	0.089689	0.516295	1214.777100
2759.404053	0.089707	0.516295	1294.347290
2759.404984	0.089872	0.516295	1378.017944
2759.405887	0.089813	0.516295	1459.119263
2759.406789	0.089692	0.516295	1540.021729
2759.407674	0.089747	0.516295	1619.448120
2759.408626	0.089828	0.516295	1704.964233
2759.409529	0.089711	0.516295	1785.973022
2759.410426	0.089696	0.516295	1866.430420
2760.402392	1.086302	0.516355	488.836090
2760.403299	0.628253	0.516355	1058.661743
2760.404186	0.092600	0.516355	1140.798096
2760.405136	0.089736	0.516355	1226.047607
2760.406041	0.089692	0.516355	1307.219238
2760.406941	0.089791	0.516355	1388.031372
2760.407875	0.089810	0.516355	1471.913452
2760.408776	0.089828	0.516355	1552.848389
2760.409669	0.089769	0.516355	1633.012329
2760.410556	0.089846	0.516355	1712.705933
2760.411504	0.089832	0.516355	1797.866211
2760.412392	0.089795	0.516355	1877.604126
2761.435115	1.107616	0.507336	511.718567
2761.436056	0.568195	0.507336	1046.389648
2761.436948	0.091527	0.507336	1128.031860
2761.437870	0.089689	0.507336	1210.724854
2761.438758	0.089700	0.507336	1290.378174
2761.439699	0.089740	0.507336	1374.823486
2761.440621	0.089755	0.507336	1457.577271
2761.441521	0.089718	0.507336	1538.323486
2761.442480	0.089762	0.507336	1624.405151
2761.443382	0.089707	0.507336	1705.320923
2761.444278	0.089747	0.507336	1785.734497
2761.445201	0.089744	0.507336	1868.567871
2762.434568	1.142556	0.535683	572.420593
2762.435493	0.529757	0.535683	1062.445923
2762.436386	0.091168	0.535683	1143.859131
2762.437273	0.089634	0.535683	1223.364258
2762.438225	0.089857	0.535683	1308.908325
2762.439123	0.089747	0.535683	1389.501465
2762.440019	0.089777	0.535683	1469.941284
2762.440954	0.089674	0.535683	1553.786499
2762.441868	0.089780	0.535683	1635.845703
2762.442763	0.089678	0.535683	1716.107300
2762.443688	0.089656	0.535683	1799.038818
2762.444582	0.089729	0.535683	1879.256592
2763.468523	1.112871	0.500286	516.372192
2763.469438	0.594913	0.500286	1060.717896
2763.470327	0.092025	0.500286	1142.528198
2763.471260	0.089766	0.500286	1226.279541
2763.472174	0.089733	0.500286	1308.295166
2763.473081	0.089744	0.500286	1389.692627
2763.473970	0.089755	0.500286	1469.484497
2763.474908	0.089821	0.500286	1553.736206
2763.475814	0.089692	0.500286	1634.997559
2763.476703	0.089784	0.500286	1714.815430
2763.477625	0.089810	0.500286	1797.619873
2763.478533	0.089758	0.500286	1879.120361
2764.467914	1.070453	0.550314	469.928833
2764.468890	0.563280	0.550314	1019.690186
2764.469780	0.091370	0.550314	1101.009155
2764.470674	0.089718	0.550314	1181.217041
2764.471614	0.089711	0.550314	1265.545044
2764.472532	0.089586	0.550314	1347.785156
2764.473434	0.089678	0.550314	1428.674438
2764.474323	0.089678	0.550314	1508.397949
2764.475267	0.089747	0.550314	1593.119385
2764.476171	0.089637	0.550314	1674.151611
2764.477059	0.089674	0.550314	1753.782227
2764.478008	0.089696	0.550314	1838.903809
2765.504000	1.099215	0.502872	541.913086
2765.504935	0.517339	0.502872	1025.624878
2765.505834	0.091044	0.502872	1107.473145
2765.506721	0.089615	0.502872	1186.962036
2765.507676	0.089784	0.502872	1272.705688
2765.508582	0.089777	0.502872	1354.043335
2765.509478	0.089718	0.502872	1434.430664
2765.510369	0.089758	0.502872	1514.405273
2765.511298	0.089747	0.502872	1597.780518
2765.512210	0.089707	0.502872	1679.593384
2765.513109	0.089681	0.502872	1760.216919
2765.514044	0.089762	0.502872	1844.144287
2766.504454	1.126110	0.562246	563.054810
2766.505387	0.513153	0.562246	1041.826660
2766.506287	0.091003	0.562246	1123.729736
2766.507182	0.089725	0.562246	1204.033936
2766.508136	0.089883	0.562246	1289.782104
2766.509031	0.089733	0.562246	1370.092896
2766.509921	0.089744	0.562246	1449.964722
2766.510864	0.089864	0.562246	1534.706909
2766.511764	0.089854	0.562246	1615.575073
2766.512665	0.089733	0.562246	1696.424194
2766.513553	0.089729	0.562246	1776.103516
2766.514478	0.089799	0.562246	1859.167236
2767.539922	1.075822	0.497011	473.361481
2767.540871	0.581741	0.497011	1025.433472
2767.541780	0.091633	0.497011	1108.728149
2767.542684	0.089678	0.497011	1189.796875
2767.543580	0.089758	0.497011	1270.220337
2767.544523	0.089832	0.497011	1354.931519
2767.545436	0.089780	0.497011	1436.900879
2767.546329	0.089670	0.497011	1516.976562
2767.547258	0.089758	0.497011	1600.362061
2767.548156	0.089795	0.497011	1680.997925
2767.549051	0.089678	0.497011	1761.259521
2767.549942	0.089747	0.497011	1841.224365
2768.542161	1.078165	0.556388	477.627167
2768.543058	0.652229	0.556388	1062.676636
2768.543990	0.092102	0.556388	1148.515747
2768.544900	0.089733	0.556388	1230.172485
2768.545803	0.089769	0.556388	1311.234131
2768.546692	0.089766	0.556388	1391.035767
2768.547641	0.089890	0.556388	1476.341553
2768.548546	0.089744	0.556388	1557.559570
2768.549438	0.089802	0.556388	1637.663208
2768.550376	0.089846	0.556388	1721.938965
2768.551270	0.089806	0.556388	1802.225464
2768.552172	0.089744	0.556388	1883.174194
2769.576966	1.102365	0.493035	550.079895
2769.577893	0.534049	0.493035	1045.143311
2769.578786	0.091267	0.493035	1126.644775
2769.579675	0.089744	0.493035	1206.426880
2769.580608	0.089835	0.493035	1290.243164
2769.581508	0.089828	0.493035	1371.088257
2769.582412	0.089857	0.493035	1452.319092
2769.583304	0.089791	0.493035	1532.412842
2769.584244	0.089872	0.493035	1616.892334
2769.585152	0.089806	0.493035	1698.436035
2769.586045	0.089729	0.493035	1778.564087
2769.586976	0.089755	0.493035	1862.125610
2770.579654	1.072375	0.549134	469.700439
2770.580644	0.520111	0.549134	984.610413
2770.581547	0.091073	0.549134	1066.849365
2770.582445	0.089641	0.549134	1147.347046
2770.583361	0.089762	0.549134	1229.568970
2770.584269	0.089824	0.549134	1311.129395
2770.585177	0.089707	0.549134	1392.583374
2770.586071	0.089755	0.549134	1472.823975
2770.587002	0.089788	0.549134	1556.416260
2770.587907	0.089835	0.549134	1637.717163
2770.588804	0.089744	0.549134	1718.217163
2770.589696	0.089780	0.549134	1798.301147
2771.609808	1.077488	0.500967	479.482086
2771.610703	0.642905	0.500967	1054.882324
2771.611659	0.091868	0.500967	1142.707764
2771.612555	0.089711	0.500967	1223.088501
2771.613445	0.089751	0.500967	1302.966919
2771.614375	0.089773	0.500967	1386.455811
2771.615278	0.089700	0.500967	1467.454590
2771.616170	0.089736	0.500967	1547.499390
2771.617095	0.089777	0.500967	1630.542725
2771.618008	0.089766	0.500967	1712.498779
2771.618922	0.089667	0.500967	1794.454224
2771.619816	0.089777	0.500967	1874.714478
2772.616143	1.075433	0.547027	478.567841
2772.617038	0.651420	0.547027	1061.588379
2772.618006	0.091732	0.547027	1150.385132
2772.618898	0.089681	0.547027	1230.380981
2772.619784	0.089692	0.547027	1309.848389
2772.620705	0.089751	0.547027	1392.509033
2772.621646	0.089711	0.547027	1476.926758
2772.622548	0.089678	0.547027	1557.816040
2772.623440	0.089725	0.547027	1637.851074
2772.624366	0.089773	0.547027	1720.980835
2772.625279	0.089722	0.547027	1802.896729
2772.626179	0.089791	0.547027	1883.708862
2773.642447	1.066912	0.503746	467.307312
2773.643344	0.653075	0.503746	1053.115479
2773.644289	0.091930	0.503746	1139.989258
2773.645183	0.089568	0.503746	1220.062988
2773.646076	0.089670	0.503746	1300.138672
2773.647008	0.089780	0.503746	1383.813843
2773.647922	0.089769	0.503746	1465.863037
2773.648828	0.089656	0.503746	1547.091187
2773.649715	0.089630	0.503746	1626.593140
2773.650667	0.089733	0.503746	1712.018677
2773.651577	0.089674	0.503746	1793.622070
2773.652469	0.089670	0.503746	1873.608032
2774.652368	1.073529	0.547518	472.352814
2774.653269	0.639785	0.547518	1048.799194
2774.654224	0.091516	0.547518	1136.197021
2774.655131	0.089590	0.547518	1217.454956
2774.656022	0.089714	0.547518	1297.390503
2774.656953	0.089696	0.547518	1380.897461
2774.657860	0.089663	0.547518	1462.221924
2774.658754	0.089652	0.547518	1542.370850
2774.659643	0.089663	0.547518	1622.081299
2774.660569	0.089769	0.547518	1705.207642
2774.661482	0.089663	0.547518	1787.070068
2774.662381	0.089729	0.547518	1867.736450
2775.678920	1.063865	0.505148	459.589600
2775.679882	0.579880	0.505148	1017.434509
2775.680799	0.091260	0.505148	1101.119751
2775.681701	0.089626	0.505148	1181.962769
2775.682596	0.089637	0.505148	1262.188232
2775.683546	0.089707	0.505148	1347.409912
2775.684448	0.089663	0.505148	1428.286011
2775.685352	0.089667	0.505148	1509.344727
2775.686282	0.089751	0.505148	1592.813110
2775.687182	0.089707	0.505148	1673.549438
2775.688090	0.089692	0.505148	1754.990112
2775.688978	0.089729	0.505148	1834.669434
2776.686582	1.083582	0.550249	524.453491
2776.687505	0.562148	0.550249	1043.316406
2776.688404	0.091439	0.550249	1125.520264
2776.689293	0.089623	0.550249	1205.194946
2776.690226	0.089725	0.550249	1288.908691
2776.691146	0.089722	0.550249	1371.452637
2776.692057	0.089670	0.550249	1453.142334
2776.692955	0.089718	0.550249	1533.709106
2776.693898	0.089692	0.550249	1618.289062
2776.694800	0.089725	0.550249	1699.221313
2776.695690	0.089711	0.550249	1779.063843
2776.696634	0.089733	0.550249	1863.771484
2777.712605	1.087657	0.499307	495.971802
2777.713560	0.547760	0.499307	1019.082642
2777.714470	0.091285	0.499307	1102.152344
2777.715370	0.089696	0.499307	1182.878784
2777.716306	0.089674	0.499307	1266.813721
2777.717220	0.089692	0.499307	1348.792603
2777.718123	0.089718	0.499307	1429.807983
2777.719013	0.089718	0.499307	1509.656982
2777.719949	0.089751	0.499307	1593.663940
2777.720857	0.089751	0.499307	1675.157837
2777.721751	0.089773	0.499307	1755.414795
2777.722681	0.089795	0.499307	1838.924072
2778.722250	1.071830	0.555220	470.533295
2778.723193	0.614095	0.555220	1049.625244
2778.724102	0.091707	0.555220	1132.986450
2778.725003	0.089703	0.555220	1213.809204
2778.725893	0.089751	0.555220	1293.687622
2778.726840	0.089788	0.555220	1378.716431
2778.727753	0.089736	0.555220	1460.645752
2778.728653	0.089755	0.555220	1541.424927
2778.729545	0.089711	0.555220	1621.446899
2778.730498	0.089733	0.555220	1706.962158
2778.731401	0.089703	0.555220	1787.964355
2778.732289	0.089663	0.555220	1867.585205
2779.747286	1.076360	0.510329	482.209229
2779.748187	0.640477	0.510329	1059.279297
2779.749107	0.092681	0.510329	1144.545532
2779.750031	0.089700	0.510329	1227.428101
2779.750949	0.089659	0.510329	1309.735474
2779.751850	0.089689	0.510329	1390.545044
2779.752788	0.089703	0.510329	1474.686768
2779.753692	0.089630	0.510329	1555.712402
2779.754591	0.089703	0.510329	1636.355713
2779.755480	0.089681	0.510329	1716.082520
2779.756434	0.089751	0.510329	1801.704956
2779.757334	0.089722	0.510329	1882.454468
2780.756958	1.096128	0.552513	491.065277
2780.757865	0.624012	0.552513	1057.044556
2780.758755	0.092490	0.552513	1139.360840
2780.759704	0.089703	0.552513	1224.489380
2780.760616	0.089718	0.552513	1306.312256
2780.761507	0.089736	0.552513	1386.267334
2780.762440	0.089755	0.552513	1470.008423
2780.763350	0.089681	0.552513	1551.618530
2780.764252	0.089674	0.552513	1632.504517
2780.765142	0.089678	0.552513	1712.317749
2780.766077	0.089696	0.552513	1796.183594
2780.766974	0.089700	0.552513	1876.644287
2781.780947	1.075137	0.514091	473.060120
2781.781844	0.648201	0.514091	1054.496094
2781.782795	0.091589	0.514091	1141.597534
2781.783703	0.089645	0.514091	1222.994995
2781.784605	0.089670	0.514091	1303.877686
2781.785515	0.089707	0.514091	1385.511108
2781.786445	0.089729	0.514091	1468.959106
2781.787348	0.089696	0.514091	1549.954590
2781.788241	0.089725	0.514091	1630.079346
2781.789175	0.089806	0.514091	1713.958008
2781.790075	0.089729	0.514091	1794.714111
2781.790968	0.089663	0.514091	1874.783203
2782.793172	1.082435	0.555788	481.683685
2782.794076	0.639683	0.555788	1059.956787
2782.794968	0.092571	0.555788	1142.529907
2782.795918	0.089725	0.555788	1227.769043
2782.796834	0.089755	0.555788	1309.984253
2782.797739	0.089788	0.555788	1391.242065
2782.798628	0.089755	0.555788	1471.033936
2782.799564	0.089821	0.555788	1555.105957
2782.800470	0.089700	0.555788	1636.373901
2782.801368	0.089674	0.555788	1716.901245
2782.802306	0.089696	0.555788	1801.036133
2782.803207	0.089674	0.555788	1881.832520
2783.817679	1.066238	0.525693	468.078400
2783.818571	0.648732	0.525693	1046.747070
2783.819517	0.091835	0.525693	1133.622681
2783.820438	0.089645	0.525693	1216.185547
2783.821335	0.089674	0.525693	1296.623169
2783.822264	0.089685	0.525693	1379.940552
2783.823168	0.089755	0.525693	1461.078735
2783.824069	0.089641	0.525693	1541.845337
2783.824959	0.089674	0.525693	1621.655273
2783.825905	0.089689	0.525693	1706.500854
2783.826804	0.089659	0.525693	1787.104736
2783.827714	0.089707	0.525693	1868.738159
2784.827597	1.074001	0.555272	472.560638
2784.828500	0.637006	0.555272	1047.776733
2784.829459	0.091505	0.555272	1135.530151
2784.830369	0.089733	0.555272	1217.186890
2784.831267	0.089802	0.555272	1297.829346
2784.832209	0.089777	0.555272	1382.398926
2784.833110	0.089769	0.555272	1463.281006
2784.834014	0.089725	0.555272	1544.392700
2784.834900	0.089681	0.555272	1623.850464
2784.835842	0.089780	0.555272	1708.423462
2784.836745	0.089777	0.555272	1789.491699
2784.837649	0.089674	0.555272	1870.557007
2785.852875	1.072815	0.522079	472.038574
2785.853782	0.648138	0.522079	1059.900146
2785.854671	0.092838	0.522079	1142.433228
2785.855646	0.089729	0.522079	1229.918945
2785.856545	0.089784	0.522079	1310.634644
2785.857443	0.089711	0.522079	1391.194824
2785.858331	0.089626	0.522079	1470.783081
2785.859254	0.089733	0.522079	1553.606323
2785.860165	0.089678	0.522079	1635.302734
2785.861059	0.089747	0.522079	1715.536865
2785.861992	0.089744	0.522079	1799.267700
2785.862898	0.089780	0.522079	1880.608643
2786.863070	1.101573	0.567454	503.419067
2786.863985	0.606650	0.567454	1058.504150
2786.864872	0.092219	0.567454	1140.302612
2786.865829	0.089722	0.567454	1226.166260
2786.866736	0.089703	0.567454	1307.527222
2786.867628	0.089733	0.567454	1387.568726
2786.868556	0.089747	0.567454	1470.854248
2786.869462	0.089681	0.567454	1552.105591
2786.870363	0.089623	0.567454	1632.855713
2786.871256	0.089645	0.567454	1712.908447
2786.872205	0.089773	0.567454	1798.103027
2786.873106	0.089736	0.567454	1878.955444
2787.889376	1.094125	0.513003	492.356171
2787.890282	0.630417	0.513003	1063.514404
2787.891207	0.091952	0.513003	1148.569946
2787.892094	0.089623	0.513003	1228.065430
2787.893044	0.089685	0.513003	1313.266235
2787.893939	0.089645	0.513003	1393.498291
2787.894853	0.089711	0.513003	1475.493896
2787.895748	0.089740	0.513003	1555.811157
2787.896705	0.089670	0.513003	1641.625732
2787.897610	0.089615	0.513003	1722.727783
2787.898503	0.089692	0.513003	1802.823120
2787.899437	0.089751	0.513003	1886.650513
2788.897484	1.067424	0.569444	467.531891
2788.898442	0.596858	0.569444	1039.321777
2788.899354	0.091600	0.569444	1122.861328
2788.900255	0.089648	0.569444	1203.634521
2788.901140	0.089667	0.569444	1282.989624
2788.902077	0.089744	0.569444	1367.079468
2788.902982	0.089722	0.569444	1448.277588
2788.903887	0.089711	0.569444	1529.465820
2788.904777	0.089773	0.569444	1609.363770
2788.905686	0.089755	0.569444	1690.950684
2788.906626	0.089703	0.569444	1775.271851
2788.907517	0.089711	0.569444	1855.204102
2789.926363	1.083772	0.514276	482.278503
2789.927269	0.633395	0.514276	1056.134155
2789.928162	0.092391	0.514276	1138.639648
2789.929134	0.089674	0.514276	1225.802856
2789.930046	0.089630	0.514276	1307.545532
2789.930943	0.089586	0.514276	1387.904297
2789.931856	0.089685	0.514276	1469.786743
2789.932773	0.089656	0.514276	1552.001099
2789.933668	0.089634	0.514276	1632.223389
2789.934559	0.089678	0.514276	1712.126221
2789.935495	0.089696	0.514276	1796.081665
2789.936402	0.089678	0.514276	1877.419434
2790.931403	1.066641	0.566930	465.055298
2790.932370	0.614634	0.566930	1059.406250
2790.933281	0.091414	0.566930	1142.683960
2790.934203	0.089572	0.566930	1225.268921
2790.935093	0.089685	0.566930	1305.088623
2790.936047	0.089718	0.566930	1390.679565
2790.936939	0.089623	0.566930	1470.623047
2790.937841	0.089692	0.566930	1551.525635
2790.938780	0.089700	0.566930	1635.753662
2790.939702	0.089714	0.566930	1718.470337
2790.940599	0.089641	0.566930	1798.878418
2790.941487	0.089667	0.566930	1878.502441
2791.962318	1.074185	0.517145	473.715424
2791.963223	0.647483	0.517145	1059.687500
2791.964112	0.092904	0.517145	1142.279175
2791.965058	0.089707	0.517145	1227.142090
2791.965964	0.089729	0.517145	1308.436523
2791.966872	0.089659	0.517145	1389.847290
2791.967761	0.089681	0.517145	1469.574097
2791.968703	0.089762	0.517145	1554.129883
2791.969607	0.089667	0.517145	1635.188599
2791.970499	0.089729	0.517145	1715.226807
2791.971436	0.089707	0.517145	1799.282349
2791.972342	0.089769	0.517145	1880.613281
2792.964879	1.148822	0.578033	580.155090
2792.965799	0.524473	0.578033	1062.669922
2792.966700	0.091113	0.578033	1144.762939
2792.967586	0.089656	0.578033	1224.197998
2792.968524	0.089769	0.578033	1308.401611
2792.969432	0.089736	0.578033	1389.882202
2792.970330	0.089736	0.578033	1470.465454
2792.971253	0.089769	0.578033	1553.322510
2792.972157	0.089736	0.578033	1634.444092
2792.973061	0.089667	0.578033	1715.502808
2792.973949	0.089718	0.578033	1795.172363
2792.974904	0.089795	0.578033	1880.926514
2793.998302	1.090294	0.521302	490.632416
2793.999229	0.603721	0.521302	1050.281494
2794.000119	0.092036	0.521302	1132.193604
2794.001040	0.089678	0.521302	1214.786743
2794.001949	0.089718	0.521302	1296.340454
2794.002860	0.089634	0.521302	1377.996826
2794.003760	0.089689	0.521302	1458.716675
2794.004690	0.089758	0.521302	1542.191895
2794.005590	0.089707	0.521302	1622.928223
2794.006493	0.089700	0.521302	1703.927002
2794.007381	0.089729	0.521302	1783.606323
2794.008320	0.089766	0.521302	1867.896240
2794.997757	1.098395	0.585304	538.213440
2794.998686	0.533291	0.585304	1033.640747
2794.999592	0.091208	0.585304	1116.275635
2795.000485	0.089685	0.585304	1196.364380
2795.001436	0.089784	0.585304	1281.748901
2795.002336	0.089692	0.585304	1362.472046
2795.003233	0.089714	0.585304	1442.945801
2795.004122	0.089736	0.585304	1522.721436
2795.005067	0.089817	0.585304	1607.598389
2795.005974	0.089678	0.585304	1688.936035
2795.006871	0.089711	0.585304	1769.406494
2795.007798	0.089722	0.585304	1852.578491
2796.032988	1.081941	0.525914	486.873413
2796.033893	0.634918	0.525914	1061.474365
2796.034839	0.092450	0.525914	1148.932007
2796.035747	0.089590	0.525914	1230.279541
2796.036645	0.089711	0.525914	1310.839722
2796.037536	0.089678	0.525914	1390.742554
2796.038475	0.089696	0.525914	1474.967163
2796.039390	0.089678	0.525914	1557.022339
2796.040289	0.089689	0.525914	1637.652466
2796.041177	0.089692	0.525914	1717.299316
2796.042111	0.089766	0.525914	1801.140381
2796.043010	0.089711	0.525914	1881.790283
2797.031118	1.071299	0.587390	471.371429
2797.032110	0.534210	0.587390	1001.307983
2797.033006	0.091069	0.587390	1082.906128
2797.033925	0.089630	0.587390	1165.276245
2797.034827	0.089703	0.587390	1246.188721
2797.035786	0.089667	0.587390	1332.179077
2797.036694	0.089740	0.587390	1413.662964
2797.037587	0.089586	0.587390	1493.663452
2797.038533	0.089725	0.587390	1578.543579
2797.039442	0.089637	0.587390	1660.024048
2797.040332	0.089703	0.587390	1739.860107
2797.041265	0.089744	0.587390	1823.590942
2798.067921	1.075100	0.523062	471.968994
2798.068847	0.618552	0.523062	1044.748413
2798.069751	0.092146	0.523062	1128.048340
2798.070677	0.089718	0.523062	1211.127197
2798.071589	0.089839	0.523062	1293.060303
2798.072497	0.089692	0.523062	1374.500977
2798.073387	0.089714	0.523062	1454.346802
2798.074305	0.089802	0.523062	1536.785278
2798.075209	0.089758	0.523062	1617.926758
2798.076113	0.089711	0.523062	1699.025269
2798.077001	0.089634	0.523062	1778.620117
2798.077952	0.089791	0.523062	1864.011597
2799.066071	1.086211	0.579978	486.622467
2799.066965	0.635526	0.579978	1054.782837
2799.067920	0.091582	0.579978	1142.243652
2799.068828	0.089623	0.579978	1223.621094
2799.069721	0.089674	0.579978	1303.700073
2799.070665	0.089718	0.579978	1388.393921
2799.071563	0.089780	0.579978	1469.016602
2799.072468	0.089714	0.579978	1550.208130
2799.073356	0.089696	0.579978	1629.858154
2799.074287	0.089722	0.579978	1713.389038
2799.075191	0.089832	0.579978	1794.596802
2799.076101	0.089674	0.579978	1876.200195
2800.102857	1.064905	0.522361	461.103790
2800.103798	0.643363	0.522361	1066.508423
2800.104717	0.091644	0.522361	1150.729492
2800.105627	0.089604	0.522361	1232.269531
2800.106519	0.089667	0.522361	1312.252319
2800.107466	0.089755	0.522361	1397.250000
2800.108366	0.089784	0.522361	1478.055542
2800.109266	0.089762	0.522361	1558.841309
2800.110155	0.089795	0.522361	1638.668945
2800.111088	0.089766	0.522361	1722.420288
2800.111994	0.089729	0.522361	1803.714722
2800.112895	0.089637	0.522361	1884.478027
2801.101015	1.083149	0.559474	479.835144
2801.101942	0.607313	0.559474	1042.814453
2801.102844	0.091831	0.559474	1125.646118
2801.103781	0.089685	0.559474	1209.681030
2801.104676	0.089773	0.559474	1290.027832
2801.105572	0.089659	0.559474	1370.362671
2801.106463	0.089714	0.559474	1450.298218
2801.107406	0.089722	0.559474	1534.905762
2801.108295	0.089729	0.559474	1614.674805
2801.109202	0.089711	0.559474	1696.042358
2801.110091	0.089648	0.559474	1775.739868
2801.111042	0.089703	0.559474	1861.047729
2802.139339	1.065355	0.538422	466.625580
2802.140235	0.658846	0.538422	1056.952026
2802.141203	0.091337	0.538422	1145.365967
2802.142113	0.089667	0.538422	1226.962646
2802.143012	0.089689	0.538422	1307.592773
2802.143898	0.089685	0.538422	1387.053711
2802.144852	0.089718	0.538422	1472.644653
2802.145749	0.089762	0.538422	1553.161133
2802.146639	0.089729	0.538422	1633.019897
2802.147566	0.089733	0.538422	1716.202026
2802.148478	0.089648	0.538422	1797.961426
2802.149378	0.089736	0.538422	1878.724121
2803.138522	1.086672	0.555784	489.002533
2803.139428	0.626565	0.555784	1056.670410
2803.140319	0.092384	0.555784	1138.984619
2803.141267	0.089714	0.555784	1224.033813
2803.142179	0.089634	0.555784	1305.779785
2803.143076	0.089714	0.555784	1386.253540
2803.144006	0.089769	0.555784	1469.739014
2803.144909	0.089692	0.555784	1550.731201
2803.145818	0.089711	0.555784	1632.278198
2803.146709	0.089597	0.555784	1712.109253
2803.147640	0.089736	0.555784	1795.653809
2803.148550	0.089656	0.555784	1877.240601
2804.175064	1.083098	0.558076	486.311035
2804.175963	0.641616	0.558076	1063.124023
2804.176900	0.092472	0.558076	1149.770264
2804.177800	0.089689	0.558076	1230.490112
2804.178699	0.089674	0.558076	1311.107056
2804.179588	0.089623	0.558076	1390.781738
2804.180533	0.089791	0.558076	1475.634521
2804.181428	0.089685	0.558076	1555.902588
2804.182332	0.089733	0.558076	1637.020874
2804.183219	0.089674	0.558076	1716.561768
2804.184168	0.089773	0.558076	1801.756348
2804.185079	0.089670	0.558076	1883.446045
2805.176011	1.066578	0.550084	465.028168
2805.176978	0.569385	0.550084	1015.623169
2805.177883	0.091490	0.550084	1098.422119
2805.178778	0.089623	0.550084	1178.634521
2805.179664	0.089667	0.550084	1258.079224
2805.180599	0.089806	0.550084	1342.047729
2805.181509	0.089689	0.550084	1423.664429
2805.182409	0.089780	0.550084	1504.466675
2805.183332	0.089777	0.550084	1587.330444
2805.184235	0.089802	0.550084	1668.421875
2805.185138	0.089700	0.550084	1749.420654
2805.186032	0.089652	0.550084	1829.569580
2806.208222	1.088057	0.551736	495.065796
2806.209120	0.632402	0.551736	1062.963135
2806.210068	0.092150	0.551736	1150.321045
2806.210976	0.089711	0.551736	1231.778320
2806.211878	0.089645	0.551736	1312.637939
2806.212769	0.089784	0.551736	1392.635376
2806.213720	0.089773	0.551736	1478.009399
2806.214625	0.089689	0.551736	1559.177734
2806.215522	0.089736	0.551736	1639.671265
2806.216433	0.089733	0.551736	1721.417725
2806.217358	0.089769	0.551736	1804.454346
2806.218267	0.089744	0.551736	1886.031372
2807.215054	1.075913	0.555820	477.705414
2807.215948	0.654825	0.555820	1063.119385
2807.216932	0.091318	0.555820	1152.976685
2807.217826	0.089718	0.555820	1233.184570
2807.218726	0.089740	0.555820	1313.950562
2807.219615	0.089784	0.555820	1393.768433
2807.220546	0.089729	0.555820	1477.306152
2807.221447	0.089674	0.555820	1558.102539
2807.222345	0.089725	0.555820	1638.675903
2807.223263	0.089769	0.555820	1721.084106
2807.224168	0.089773	0.555820	1802.328613
2807.225072	0.089722	0.555820	1883.437012
2808.243199	1.113659	0.553275	543.465393
2808.244118	0.556165	0.553275	1054.580566
2808.245012	0.091501	0.553275	1136.382935
2808.245899	0.089663	0.553275	1215.914062
2808.246837	0.089835	0.553275	1300.179443
2808.247739	0.089718	0.553275	1381.105103
2808.248641	0.089725	0.553275	1462.037354
2808.249547	0.089696	0.553275	1543.302002
2808.250481	0.089824	0.553275	1627.197876
2808.251394	0.089681	0.553275	1709.077026
2808.252294	0.089747	0.553275	1789.849609
2808.253237	0.089755	0.553275	1874.488281
2809.249528	1.085647	0.557335	525.453125
2809.250463	0.540659	0.557335	1030.969482
2809.251373	0.091282	0.557335	1114.035889
2809.252266	0.089700	0.557335	1194.137695
2809.253201	0.089795	0.557335	1278.095947
2809.254096	0.089729	0.557335	1358.403442
2809.254999	0.089674	0.557335	1439.379150
2809.255890	0.089689	0.557335	1519.291748
2809.256831	0.089835	0.557335	1603.826660
2809.257730	0.089678	0.557335	1684.446899
2809.258634	0.089744	0.557335	1765.575195
2809.259567	0.089733	0.557335	1849.295776
2810.276299	1.067432	0.554382	464.332733
2810.277242	0.603732	0.554382	1033.651733
2810.278154	0.091498	0.554382	1117.097778
2810.279048	0.089685	0.554382	1197.276245
2810.279978	0.089714	0.554382	1280.710571
2810.280882	0.089692	0.554382	1361.792480
2810.281775	0.089707	0.554382	1441.900879
2810.282664	0.089674	0.554382	1521.621094
2810.283611	0.089703	0.554382	1606.570190
2810.284511	0.089740	0.554382	1687.336182
2810.285415	0.089656	0.554382	1768.385010
2810.286304	0.089696	0.554382	1848.124756
2811.285449	1.067373	0.562016	466.442017
2811.286369	0.640411	0.562016	1055.620483
2811.287311	0.091509	0.562016	1141.821777
2811.288220	0.089586	0.562016	1223.255615
2811.289112	0.089593	0.562016	1303.172974
2811.290053	0.089747	0.562016	1387.625244
2811.290964	0.089718	0.562016	1469.358398
2811.291858	0.089670	0.562016	1549.523804
2811.292745	0.089707	0.562016	1629.093994
2811.293686	0.089755	0.562016	1713.553101
2811.294587	0.089703	0.562016	1794.375854
2811.295474	0.089612	0.562016	1873.861572
2812.308938	1.070533	0.561875	466.752563
2812.309906	0.554758	0.561875	1003.758606
2812.310823	0.091198	0.561875	1087.386719
2812.311723	0.089667	0.561875	1168.086792
2812.312648	0.089806	0.561875	1251.157227
2812.313549	0.089762	0.561875	1332.032715
2812.314440	0.089729	0.561875	1411.981201
2812.315325	0.089652	0.561875	1491.323364
2812.316258	0.089788	0.561875	1575.095215
2812.317166	0.089733	0.561875	1656.572510
2812.318072	0.089652	0.561875	1737.797363
2812.318961	0.089681	0.561875	1817.524170
2813.318861	1.083043	0.568509	476.539001
2813.319859	0.507843	0.568509	983.366333
2813.320766	0.090905	0.568509	1065.816772
2813.321660	0.089696	0.568509	1146.005005
2813.322601	0.089681	0.568509	1230.395264
2813.323502	0.089810	0.568509	1311.313721
2813.324406	0.089788	0.568509	1392.481689
2813.325301	0.089696	0.568509	1472.759644
2813.326236	0.089813	0.568509	1556.734985
2813.327137	0.089810	0.568509	1637.653442
2813.328036	0.089736	0.568509	1718.326416
2813.328925	0.089729	0.568509	1798.095459
2814.345422	1.073357	0.557351	472.277069
2814.346380	0.564207	0.557351	1012.786987
2814.347291	0.091450	0.557351	1096.098145
2814.348185	0.089656	0.557351	1176.250366
2814.349116	0.089813	0.557351	1259.866455
2814.350018	0.089780	0.557351	1340.848267
2814.350907	0.089711	0.557351	1420.601074
2814.351794	0.089718	0.557351	1500.180908
2814.352726	0.089795	0.557351	1583.869751
2814.353632	0.089806	0.557351	1665.233887
2814.354537	0.089733	0.557351	1746.441895
2814.355426	0.089692	0.557351	1826.178467
2815.353045	1.077836	0.569879	469.936371
2815.353974	0.616022	0.569879	1042.220581
2815.354875	0.092007	0.569879	1125.118774
2815.355804	0.089659	0.569879	1208.412354
2815.356712	0.089762	0.569879	1289.916260
2815.357614	0.089711	0.569879	1370.835327
2815.358501	0.089641	0.569879	1450.347046
2815.359443	0.089733	0.569879	1534.875244
2815.360342	0.089656	0.569879	1615.475830
2815.361236	0.089648	0.569879	1695.621582
2815.362127	0.089670	0.569879	1775.517944
2815.363069	0.089736	0.569879	1860.049561
2816.379611	1.088716	0.554761	491.010834
2816.380526	0.612872	0.554761	1051.788940
2816.381422	0.092135	0.554761	1134.341919
2816.382356	0.089725	0.554761	1218.145386
2816.383255	0.089744	0.554761	1298.824951
2816.384156	0.089681	0.554761	1379.627930
2816.385069	0.089692	0.554761	1461.517090
2816.385957	0.089700	0.554761	1541.170410
2816.386913	0.089700	0.554761	1626.923340
2816.387811	0.089648	0.554761	1707.427612
2816.388700	0.089689	0.554761	1787.160889
2816.389609	0.089722	0.554761	1868.717896
2817.390046	1.092213	0.583084	493.680359
2817.390954	0.622837	0.583084	1059.216309
2817.391839	0.092413	0.583084	1141.002075
2817.392781	0.089711	0.583084	1225.509521
2817.393689	0.089656	0.583084	1306.916992
2817.394589	0.089744	0.583084	1387.686279
2817.395520	0.089784	0.583084	1471.275146
2817.396429	0.089703	0.583084	1552.815552
2817.397335	0.089700	0.583084	1634.083496
2817.398254	0.089707	0.583084	1716.524292
2817.399148	0.089670	0.583084	1796.689697
2817.400105	0.089769	0.583084	1882.598877
2818.416352	1.083358	0.560916	487.511169
2818.417255	0.635771	0.560916	1061.612793
2818.418146	0.092465	0.560916	1143.998779
2818.419076	0.089685	0.560916	1227.405884
2818.419988	0.089810	0.560916	1309.312256
2818.420898	0.089681	0.560916	1390.922363
2818.421786	0.089714	0.560916	1470.588745
2818.422730	0.089744	0.560916	1555.306763
2818.423639	0.089718	0.560916	1636.860474
2818.424537	0.089700	0.560916	1717.410767
2818.425484	0.089806	0.560916	1802.456909
2818.426386	0.089762	0.560916	1883.422241
2819.425222	1.065868	0.575362	462.586670
2819.426182	0.611847	0.575362	1049.959717
2819.427094	0.091439	0.575362	1133.352295
2819.427984	0.089659	0.575362	1213.149170
2819.428901	0.089692	0.575362	1295.397095
2819.429815	0.089692	0.575362	1377.375977
2819.430710	0.089678	0.575362	1457.637573
2819.431597	0.089736	0.575362	1537.233643
2819.432522	0.089791	0.575362	1620.290527
2819.433440	0.089714	0.575362	1702.648315
2819.434347	0.089740	0.575362	1784.042480
2819.435236	0.089685	0.575362	1863.772461
2820.451275	1.067168	0.557113	468.486755
2820.452255	0.539883	0.557113	997.571960
2820.453163	0.091256	0.557113	1080.432495
2820.454059	0.089689	0.557113	1160.793579
2820.454952	0.089777	0.557113	1240.964111
2820.455890	0.089828	0.557113	1325.222656
2820.456805	0.089799	0.557113	1407.388306
2820.457700	0.089747	0.557113	1487.712158
2820.458625	0.089751	0.557113	1570.731812
2820.459525	0.089766	0.557113	1651.520874
2820.460428	0.089791	0.557113	1732.602417
2820.461316	0.089780	0.557113	1812.327271
2821.458902	1.081798	0.591999	474.909363
2821.459827	0.615586	0.591999	1044.326416
2821.460728	0.091989	0.591999	1127.208130
2821.461648	0.089648	0.591999	1209.684692
2821.462551	0.089861	0.591999	1290.828979
2821.463456	0.089740	0.591999	1372.043701
2821.464349	0.089780	0.591999	1452.217529
2821.465292	0.089766	0.591999	1536.866455
2821.466191	0.089718	0.591999	1617.522949
2821.467092	0.089769	0.591999	1698.405029
2821.467989	0.089703	0.591999	1778.868896
2821.468933	0.089762	0.591999	1863.604248
2822.488801	1.086738	0.560381	489.032257
2822.489735	0.598283	0.560381	1047.828125
2822.490624	0.091901	0.560381	1129.527832
2822.491552	0.089663	0.560381	1212.735107
2822.492463	0.089773	0.560381	1294.518311
2822.493372	0.089707	0.560381	1376.062012
2822.494270	0.089652	0.560381	1456.569580
2822.495195	0.089773	0.560381	1539.609619
2822.496092	0.089736	0.560381	1620.103149
2822.496991	0.089766	0.560381	1700.802490
2822.497882	0.089744	0.560381	1780.764038
2822.498819	0.089817	0.560381	1864.922485
2823.494921	1.100317	0.579733	550.158691
2823.495834	0.538224	0.579733	1041.557129
2823.496737	0.091263	0.579733	1123.968018
2823.497629	0.089612	0.579733	1203.901733
2823.498568	0.089736	0.579733	1288.164185
2823.499466	0.089700	0.579733	1368.714478
2823.500376	0.089670	0.579733	1450.314575
2823.501267	0.089696	0.579733	1530.233765
2823.502228	0.089718	0.579733	1616.452759
2823.503138	0.089678	0.579733	1698.059448
2823.504028	0.089689	0.579733	1777.882446
2823.504963	0.089733	0.579733	1861.782471
2824.523736	1.078612	0.568348	477.825165
2824.524682	0.616172	0.568348	1060.723755
2824.525595	0.091659	0.568348	1144.408325
2824.526504	0.089630	0.568348	1225.882080
2824.527399	0.089810	0.568348	1306.261597
2824.528324	0.089751	0.568348	1389.281250
2824.529235	0.089777	0.568348	1471.067749
2824.530135	0.089692	0.568348	1551.790894
2824.531027	0.089678	0.568348	1631.783447
2824.531971	0.089766	0.568348	1716.522217
2824.532881	0.089667	0.568348	1798.118896
2824.533782	0.089711	0.568348	1878.948242
2825.528795	1.090441	0.581086	488.517395
2825.529726	0.611492	0.581086	1057.816162
2825.530613	0.092076	0.581086	1139.487915
2825.531549	0.089637	0.581086	1223.388550
2825.532456	0.089714	0.581086	1304.759521
2825.533368	0.089744	0.581086	1386.605713
2825.534261	0.089630	0.581086	1466.645386
2825.535204	0.089744	0.581086	1551.273682
2825.536101	0.089689	0.581086	1631.724487
2825.536995	0.089667	0.581086	1711.886597
2825.537919	0.089744	0.581086	1794.809692
2825.538825	0.089777	0.581086	1876.147339
2826.560967	1.083391	0.561210	472.358551
2826.561954	0.525491	0.561210	991.017822
2826.562867	0.090919	0.561210	1074.027100
2826.563765	0.089689	0.561210	1154.567627
2826.564699	0.089758	0.561210	1238.401855
2826.565608	0.089733	0.561210	1319.968872
2826.566510	0.089667	0.561210	1400.848267
2826.567400	0.089725	0.561210	1480.703857
2826.568363	0.089747	0.561210	1567.130493
2826.569270	0.089641	0.561210	1648.434937
2826.570159	0.089725	0.561210	1728.200806
2826.571070	0.089670	0.561210	1809.890503
2827.562197	1.079978	0.585469	475.190308
2827.563106	0.637247	0.585469	1054.447998
2827.563996	0.092596	0.585469	1136.858887
2827.564949	0.089722	0.585469	1222.363647
2827.565856	0.089681	0.585469	1303.704712
2827.566753	0.089725	0.585469	1384.188354
2827.567672	0.089692	0.585469	1466.615601
2827.568586	0.089795	0.585469	1548.688110
2827.569491	0.089648	0.585469	1629.819946
2827.570382	0.089718	0.585469	1709.758667
2827.571312	0.089700	0.585469	1793.179443
2827.572212	0.089725	0.585469	1873.932251
2828.596423	1.064788	0.562826	465.312134
2828.597315	0.659231	0.562826	1053.346191
2828.598287	0.091549	0.562826	1142.331909
2828.599195	0.089663	0.562826	1223.745972
2828.600087	0.089733	0.562826	1303.787476
2828.601020	0.089740	0.562826	1387.514893
2828.601929	0.089692	0.562826	1469.045288
2828.602825	0.089630	0.562826	1549.353882
2828.603717	0.089678	0.562826	1629.346436
2828.604647	0.089663	0.562826	1712.733154
2828.605548	0.089758	0.562826	1793.605347
2828.606452	0.089641	0.562826	1874.640869
2829.595093	1.082197	0.591117	477.248962
2829.596017	0.615194	0.591117	1045.688354
2829.596915	0.092135	0.591117	1128.425537
2829.597849	0.089678	0.591117	1212.184570
2829.598758	0.089784	0.591117	1293.798218
2829.599659	0.089700	0.591117	1374.617676
2829.600546	0.089736	0.591117	1454.213745
2829.601497	0.089769	0.591117	1539.584351
2829.602402	0.089656	0.591117	1620.722778
2829.603297	0.089623	0.591117	1700.935181
2829.604226	0.089758	0.591117	1784.320679
2829.605123	0.089784	0.591117	1864.856812
2830.630873	1.083248	0.563104	480.962219
2830.631829	0.582719	0.563104	1038.041138
2830.632728	0.091340	0.563104	1120.156128
2830.633639	0.089619	0.563104	1201.799194
2830.634537	0.089663	0.563104	1282.316650
2830.635484	0.089689	0.563104	1367.251831
2830.636391	0.089674	0.563104	1448.586182
2830.637282	0.089766	0.563104	1528.567383
2830.638189	0.089667	0.563104	1609.895142
2830.639126	0.089645	0.563104	1693.892334
2830.640035	0.089700	0.563104	1775.429321
2830.640931	0.089659	0.563104	1855.764160
2831.628254	1.089972	0.604144	489.397369
2831.629190	0.592624	0.604144	1044.093872
2831.630090	0.091857	0.604144	1126.764893
2831.630979	0.089656	0.604144	1206.468872
2831.631915	0.089689	0.604144	1290.417480
2831.632812	0.089678	0.604144	1370.858398
2831.633719	0.089729	0.604144	1452.242554
2831.634617	0.089696	0.604144	1532.789551
2831.635583	0.089685	0.604144	1619.425293
2831.636484	0.089641	0.604144	1700.191895
2831.637379	0.089725	0.604144	1780.496094
2831.638310	0.089714	0.604144	1864.020142
2832.665035	1.069149	0.556328	467.218231
2832.665941	0.652932	0.556328	1058.774780
2832.666832	0.092842	0.556328	1141.496826
2832.667787	0.089729	0.556328	1227.187988
2832.668695	0.089725	0.556328	1308.658569
2832.669588	0.089751	0.556328	1388.806152
2832.670504	0.089718	0.556328	1470.987793
2832.671414	0.089707	0.556328	1552.621216
2832.672324	0.089663	0.556328	1634.214600
2832.673227	0.089670	0.556328	1715.187012
2832.674157	0.089832	0.556328	1798.730347
2832.675058	0.089670	0.556328	1879.523437
2833.662921	1.071032	0.612418	469.111816
2833.663886	0.611444	0.612418	1059.155273
2833.664793	0.091461	0.612418	1142.110596
2833.665688	0.089667	0.612418	1222.362305
2833.666573	0.089747	0.612418	1301.788696
2833.667520	0.089780	0.612418	1386.810669
2833.668428	0.089725	0.612418	1468.281250
2833.669340	0.089788	0.612418	1550.167480
2833.670226	0.089674	0.612418	1629.618652
2833.671167	0.089736	0.612418	1714.060547
2833.672072	0.089634	0.612418	1795.179077
2833.672964	0.089744	0.612418	1875.230469
2834.699984	1.075701	0.548054	474.383972
2834.700937	0.573984	0.548054	1021.391113
2834.701844	0.091549	0.548054	1104.426147
2834.702748	0.089615	0.548054	1185.438477
2834.703668	0.089692	0.548054	1267.955444
2834.704586	0.089667	0.548054	1350.269531
2834.705496	0.089634	0.548054	1431.836304
2834.706397	0.089740	0.548054	1512.692017
2834.707329	0.089725	0.548054	1596.316040
2834.708235	0.089747	0.548054	1677.627075
2834.709134	0.089740	0.548054	1758.303345
2834.710020	0.089722	0.548054	1837.796753
2835.698134	1.083387	0.618836	479.940674
2835.699039	0.636508	0.618836	1055.979980
2835.699930	0.092626	0.618836	1138.509521
2835.700890	0.089681	0.618836	1224.603638
2835.701799	0.089626	0.618836	1306.074097
2835.702697	0.089696	0.618836	1386.621094
2835.703624	0.089711	0.618836	1469.782959
2835.704522	0.089751	0.618836	1550.379395
2835.705431	0.089714	0.618836	1631.929687
2835.706322	0.089758	0.618836	1711.904297
2835.707256	0.089733	0.618836	1795.714600
2835.708162	0.089703	0.618836	1876.985840
2836.734942	1.093982	0.541552	499.949707
2836.735846	0.628605	0.541552	1068.208374
2836.736734	0.092446	0.541552	1150.300659
2836.737665	0.089659	0.541552	1233.773560
2836.738599	0.089714	0.541552	1317.566772
2836.739504	0.089667	0.541552	1398.715210
2836.740393	0.089703	0.541552	1478.461548
2836.741319	0.089659	0.541552	1561.486206
2836.742236	0.089744	0.541552	1643.781128
2836.743156	0.089659	0.541552	1726.267822
2836.744041	0.089689	0.541552	1805.642334
2836.744992	0.089667	0.541552	1890.915405
2837.735381	1.074430	0.614255	477.046906
2837.736277	0.650709	0.614255	1060.082397
2837.737234	0.091659	0.614255	1147.800049
2837.738142	0.089586	0.614255	1229.144287
2837.739028	0.089733	0.614255	1308.647461
2837.739932	0.089656	0.614255	1389.696289
2837.740862	0.089681	0.614255	1473.099976
2837.741767	0.089648	0.614255	1554.231812
2837.742667	0.089667	0.614255	1634.931885
2837.743593	0.089766	0.614255	1718.054810
2837.744492	0.089685	0.614255	1798.681641
2837.745386	0.089659	0.614255	1878.837158
2838.771939	1.081707	0.548803	487.849640
2838.772847	0.625605	0.548803	1055.899414
2838.773735	0.092494	0.548803	1138.033936
2838.774696	0.089561	0.548803	1224.101562
2838.775593	0.089678	0.548803	1304.542480
2838.776480	0.089663	0.548803	1384.073608
2838.777418	0.089747	0.548803	1468.256592
2838.778334	0.089692	0.548803	1550.414795
2838.779234	0.089718	0.548803	1631.161011
2838.780125	0.089645	0.548803	1711.034546
2838.781074	0.089626	0.548803	1796.090088
2838.781973	0.089711	0.548803	1876.739990
2839.772368	1.071215	0.622155	474.548035
2839.773271	0.644718	0.622155	1056.728516
2839.774206	0.092637	0.622155	1143.343872
2839.775109	0.089601	0.622155	1224.253418
2839.776034	0.089626	0.622155	1307.157959
2839.776926	0.089659	0.622155	1387.134155
2839.777869	0.089667	0.622155	1471.689941
2839.778765	0.089630	0.622155	1551.998535
2839.779677	0.089689	0.622155	1633.794678
2839.780568	0.089674	0.622155	1713.694336
2839.781520	0.089744	0.622155	1799.130249
2839.782419	0.089612	0.622155	1879.691284
2840.807888	1.076151	0.541967	474.582642
2840.808795	0.640459	0.541967	1055.479004
2840.809724	0.092721	0.541967	1141.616821
2840.810632	0.089707	0.541967	1223.070801
2840.811545	0.089663	0.541967	1304.933228
2840.812441	0.089681	0.541967	1385.287720
2840.813380	0.089733	0.541967	1469.546753
2840.814275	0.089733	0.541967	1549.857544
2840.815175	0.089678	0.541967	1630.567505
2840.816067	0.089663	0.541967	1710.546997
2840.817016	0.089729	0.541967	1795.699829
2840.817925	0.089678	0.541967	1877.216919
2841.806813	1.088741	0.619291	486.667419
2841.807745	0.602377	0.619291	1048.082520
2841.808639	0.092043	0.619291	1130.369385
2841.809549	0.089648	0.619291	1211.949463
2841.810465	0.089733	0.619291	1294.144531
2841.811374	0.089637	0.619291	1375.625000
2841.812271	0.089711	0.619291	1456.095459
2841.813198	0.089733	0.619291	1539.277588
2841.814104	0.089751	0.619291	1620.591919
2841.815011	0.089663	0.619291	1701.916382
2841.815899	0.089641	0.619291	1781.517700
2841.816839	0.089722	0.619291	1865.856079
2842.841056	1.096838	0.556787	502.351959
2842.841952	0.628876	0.556787	1065.824585
2842.842898	0.092454	0.556787	1153.285645
2842.843807	0.089670	0.556787	1234.796021
2842.844706	0.089615	0.556787	1315.360352
2842.845595	0.089637	0.556787	1395.048096
2842.846539	0.089777	0.556787	1479.797241
2842.847445	0.089685	0.556787	1561.051880
2842.848351	0.089711	0.556787	1642.329712
2842.849241	0.089652	0.556787	1722.120117
2842.850179	0.089751	0.556787	1806.306519
2842.851084	0.089696	0.556787	1887.481445
2843.846145	1.100537	0.607782	542.564819
2843.847069	0.530171	0.607782	1032.442749
2843.847968	0.091135	0.607782	1114.373291
2843.848857	0.089579	0.607782	1194.008911
2843.849786	0.089736	0.607782	1277.374023
2843.850686	0.089696	0.607782	1358.100464
2843.851591	0.089703	0.607782	1439.281982
2843.852478	0.089700	0.607782	1518.845581
2843.853425	0.089769	0.607782	1603.857056
2843.854329	0.089681	0.607782	1684.929077
2843.855224	0.089700	0.607782	1765.210327
2843.856153	0.089744	0.607782	1848.582153
2844.876027	1.093425	0.558729	534.684937
2844.876955	0.540637	0.558729	1036.396240
2844.877850	0.091337	0.558729	1118.142578
2844.878739	0.089597	0.558729	1197.794434
2844.879689	0.089696	0.558729	1283.005615
2844.880590	0.089700	0.558729	1363.825073
2844.881495	0.089678	0.558729	1444.983398
2844.882385	0.089648	0.558729	1524.770508
2844.883329	0.089791	0.558729	1609.533447
2844.884241	0.089678	0.558729	1691.319580
2844.885143	0.089648	0.558729	1772.182495
2844.886073	0.089700	0.558729	1855.603271
2845.880783	1.077089	0.609812	479.304474
2845.881680	0.647285	0.609812	1059.919312
2845.882624	0.092794	0.609812	1147.516968
2845.883534	0.089703	0.609812	1229.147095
2845.884436	0.089623	0.609812	1309.986816
2845.885324	0.089678	0.609812	1389.620605
2845.886290	0.089744	0.609812	1476.312988
2845.887190	0.089670	0.609812	1557.016357
2845.888090	0.089637	0.609812	1637.690063
2845.888978	0.089670	0.609812	1717.317383
2845.889911	0.089740	0.609812	1801.044800
2845.890815	0.089579	0.609812	1882.024048
2846.911433	1.068073	0.553722	466.747711
2846.912345	0.639525	0.553722	1049.994629
2846.913291	0.091512	0.553722	1136.565430
2846.914208	0.089634	0.553722	1218.759644
2846.915102	0.089681	0.553722	1298.934814
2846.916032	0.089744	0.553722	1382.396362
2846.916935	0.089777	0.553722	1463.464600
2846.917836	0.089703	0.553722	1544.287354
2846.918724	0.089612	0.553722	1623.862671
2846.919667	0.089751	0.553722	1708.497803
2846.920574	0.089656	0.553722	1789.815552
2846.921467	0.089656	0.553722	1869.878174
2847.916494	1.071218	0.610279	470.264801
2847.917422	0.615630	0.610279	1041.569336
2847.918325	0.091941	0.610279	1124.592041
2847.919251	0.089678	0.610279	1207.633667
2847.920155	0.089700	0.610279	1288.722168
2847.921060	0.089685	0.610279	1369.887207
2847.921948	0.089689	0.610279	1449.530762
2847.922897	0.089692	0.610279	1534.648804
2847.923807	0.089630	0.610279	1616.212158
2847.924695	0.089696	0.610279	1695.862305
2847.925620	0.089681	0.610279	1778.817627
2847.926535	0.089696	0.610279	1860.889526
2848.945920	1.132244	0.554108	553.667114
2848.946847	0.533529	0.554108	1048.248535
2848.947749	0.091095	0.554108	1130.416260
2848.948638	0.089619	0.554108	1210.087646
2848.949591	0.089707	0.554108	1295.578491
2848.950495	0.089656	0.554108	1376.627319
2848.951387	0.089630	0.554108	1456.577393
2848.952276	0.089637	0.554108	1536.265137
2848.953215	0.089670	0.554108	1620.465698
2848.954110	0.089597	0.554108	1700.655151
2848.955030	0.089678	0.554108	1783.158691
2848.955922	0.089637	0.554108	1863.115234
2849.951689	1.071273	0.613675	470.288940
2849.952671	0.535679	0.613675	996.325378
2849.953585	0.091102	0.613675	1079.592896
2849.954475	0.089586	0.613675	1159.324585
2849.955377	0.089729	0.613675	1240.260132
2849.956301	0.089733	0.613675	1323.173096
2849.957210	0.089619	0.613675	1404.636841
2849.958106	0.089630	0.613675	1484.945435
2849.959039	0.089714	0.613675	1568.648926
2849.959939	0.089703	0.613675	1649.381958
2849.960842	0.089696	0.613675	1730.377441
2849.961731	0.089700	0.613675	1810.120483
2850.981336	1.081578	0.559647	482.383942
2850.982235	0.644121	0.559647	1061.448853
2850.983168	0.092329	0.559647	1147.591919
2850.984090	0.089557	0.559647	1230.163330
2850.985021	0.089736	0.559647	1313.707886
2850.985911	0.089711	0.559647	1393.550415
2850.986864	0.089678	0.559647	1479.013306
2850.987753	0.089703	0.559647	1558.759644
2850.988646	0.089663	0.559647	1638.828735
2850.989586	0.089736	0.559647	1723.180908
2850.990497	0.089630	0.559647	1804.833984
2850.991398	0.089619	0.559647	1885.580811
2851.985099	1.080989	0.622513	475.635071
2851.986057	0.562727	0.622513	1014.727600
2851.986973	0.091315	0.622513	1098.371826
2851.987879	0.089593	0.622513	1179.543579
2851.988768	0.089711	0.622513	1259.296387
2851.989695	0.089762	0.622513	1342.505737
2851.990611	0.089678	0.622513	1424.650513
2851.991528	0.089667	0.622513	1506.874878
2851.992421	0.089645	0.622513	1586.927612
2851.993370	0.089711	0.622513	1672.063110
2851.994274	0.089663	0.622513	1753.118530
2851.995161	0.089656	0.622513	1832.643188
2853.017802	1.066670	0.558181	466.134705
2853.018697	0.651354	0.558181	1049.096313
2853.019646	0.091875	0.558181	1136.285645
2853.020541	0.089564	0.558181	1216.445557
2853.021428	0.089648	0.558181	1295.963745
2853.022362	0.089659	0.558181	1379.705688
2853.023270	0.089656	0.558181	1461.113159
2853.024175	0.089758	0.558181	1542.344482
2853.025087	0.089736	0.558181	1624.183960
2853.026016	0.089736	0.558181	1707.549072
2853.026921	0.089637	0.558181	1788.671021
2853.027815	0.089714	0.558181	1868.875610
2854.021585	1.078011	0.623009	478.637054
2854.022484	0.633831	0.623009	1048.450684
2854.023459	0.091135	0.623009	1137.307495
2854.024367	0.089531	0.623009	1218.601807
2854.025258	0.089681	0.623009	1298.507935
2854.026203	0.089740	0.623009	1383.312256
2854.027116	0.089612	0.623009	1465.127808
2854.028016	0.089667	0.623009	1545.827881
2854.028962	0.089700	0.623009	1630.683838
2854.029863	0.089718	0.623009	1711.519775
2854.030766	0.089641	0.623009	1792.465698
2854.031657	0.089626	0.623009	1872.322876
2855.052256	1.086343	0.562153	491.026947
2855.053168	0.615374	0.562153	1052.247681
2855.054068	0.092080	0.562153	1135.119751
2855.054996	0.089714	0.562153	1218.374634
2855.055907	0.089810	0.562153	1300.191162
2855.056817	0.089711	0.562153	1381.827881
2855.057715	0.089773	0.562153	1462.443970
2855.058653	0.089806	0.562153	1546.681885
2855.059553	0.089828	0.562153	1627.526978
2855.060452	0.089729	0.562153	1708.193359
2855.061336	0.089725	0.562153	1787.510620
2855.062273	0.089813	0.562153	1871.665649
2856.054477	1.067373	0.617889	466.442017
2856.055422	0.589808	0.617889	1023.810913
2856.056333	0.091802	0.617889	1107.442383
2856.057231	0.089652	0.617889	1187.949951
2856.058155	0.089722	0.617889	1270.852783
2856.059075	0.089780	0.617889	1353.450684
2856.059980	0.089707	0.617889	1434.635498
2856.060875	0.089835	0.617889	1515.037964
2856.061808	0.089802	0.617889	1598.823486
2856.062712	0.089736	0.617889	1679.945068
2856.063611	0.089714	0.617889	1760.598267
2856.064499	0.089692	0.617889	1840.245117
2857.088728	1.089730	0.566310	487.109436
2857.089660	0.596371	0.566310	1042.927002
2857.090563	0.091739	0.566310	1125.767822
2857.091498	0.089744	0.566310	1209.678101
2857.092396	0.089751	0.566310	1290.274414
2857.093290	0.089667	0.566310	1370.436523
2857.094177	0.089758	0.566310	1450.052124
2857.095139	0.089773	0.566310	1536.413696
2857.096047	0.089773	0.566310	1617.927490
2857.096946	0.089722	0.566310	1698.587280
2857.097839	0.089648	0.566310	1778.643311
2857.098789	0.089725	0.566310	1863.882324
2858.087631	1.073104	0.626920	472.165863
2858.088586	0.570674	0.626920	1017.159424
2858.089489	0.091721	0.626920	1099.983643
2858.090383	0.089685	0.626920	1180.162109
2858.091308	0.089707	0.626920	1263.141113
2858.092210	0.089780	0.626920	1344.122925
2858.093122	0.089758	0.626920	1425.982544
2858.094021	0.089718	0.626920	1506.639038
2858.094952	0.089758	0.626920	1590.203979
2858.095859	0.089718	0.626920	1671.578247
2858.096760	0.089692	0.626920	1752.391113
2858.097649	0.089700	0.626920	1832.134155
2859.123145	1.069585	0.568997	468.478210
2859.124040	0.659484	0.568997	1058.716064
2859.124997	0.091750	0.568997	1146.521240
2859.125893	0.089722	0.568997	1226.911865
2859.126796	0.089700	0.568997	1307.910645
2859.127685	0.089714	0.568997	1387.666748
2859.128616	0.089736	0.568997	1471.211304
2859.129526	0.089637	0.568997	1552.781372
2859.130418	0.089696	0.568997	1632.790283
2859.131341	0.089799	0.568997	1715.674316
2859.132246	0.089788	0.568997	1796.932129
2859.133154	0.089711	0.568997	1878.389404
2860.124903	1.106360	0.621571	506.712799
2860.125830	0.578474	0.621571	1042.958252
2860.126736	0.091523	0.621571	1125.878540
2860.127627	0.089703	0.621571	1205.804199
2860.128577	0.089762	0.621571	1291.078003
2860.129487	0.089652	0.621571	1372.661377
2860.130384	0.089703	0.621571	1453.125244
2860.131327	0.089777	0.621571	1537.784546
2860.132224	0.089725	0.621571	1618.268188
2860.133124	0.089714	0.621571	1699.011108
2860.134011	0.089659	0.621571	1778.539062
2860.134949	0.089729	0.621571	1862.704834
2861.157327	1.069933	0.569835	467.560638
2861.158222	0.658788	0.569835	1057.175659
2861.159163	0.091912	0.569835	1143.664551
2861.160064	0.089670	0.569835	1224.457642
2861.160955	0.089762	0.569835	1304.435547
2861.161902	0.089817	0.569835	1389.492187
2861.162814	0.089751	0.569835	1471.345093
2861.163714	0.089806	0.569835	1552.170410
2861.164607	0.089788	0.569835	1632.350708
2861.165544	0.089806	0.569835	1716.498901
2861.166439	0.089703	0.569835	1796.783447
2861.167330	0.089769	0.569835	1876.767822
2862.157260	1.066531	0.644875	467.140442
2862.158150	0.662926	0.644875	1057.144531
2862.159122	0.091542	0.644875	1146.123047
2862.160022	0.089714	0.644875	1226.865967
2862.160912	0.089700	0.644875	1306.698730
2862.161860	0.089864	0.644875	1391.890259
2862.162774	0.089685	0.644875	1473.862427
2862.163670	0.089685	0.644875	1554.220215
2862.164572	0.089747	0.644875	1635.172241
2862.165513	0.089799	0.644875	1719.672729
2862.166421	0.089700	0.644875	1801.120117
2862.167314	0.089780	0.644875	1881.293945
2863.193546	1.074489	0.572469	470.625977
2863.194519	0.561815	0.572469	1017.272156
2863.195417	0.091487	0.572469	1099.427368
2863.196311	0.089612	0.572469	1179.540283
2863.197195	0.089711	0.572469	1258.844482
2863.198136	0.089791	0.572469	1343.338013
2863.199040	0.089758	0.572469	1424.479492
2863.199939	0.089769	0.572469	1505.182129
2863.200867	0.089806	0.572469	1588.521973
2863.201774	0.089824	0.572469	1669.992554
2863.202674	0.089707	0.572469	1750.728882
2863.203562	0.089714	0.572469	1830.395264
2864.190154	1.068193	0.638913	464.664093
2864.191091	0.636515	0.638913	1061.078613
2864.192027	0.091300	0.638913	1146.535400
2864.192927	0.089667	0.638913	1227.235474
2864.193816	0.089707	0.638913	1306.984985
2864.194776	0.089846	0.638913	1393.237305
2864.195681	0.089637	0.638913	1474.359253
2864.196574	0.089729	0.638913	1554.487305
2864.197513	0.089744	0.638913	1638.756592
2864.198415	0.089861	0.638913	1719.811035
2864.199312	0.089725	0.638913	1800.294678
2864.200203	0.089729	0.638913	1880.243164
2865.228239	1.074715	0.578685	472.874817
2865.229153	0.638174	0.578685	1056.165771
2865.230042	0.092677	0.578685	1138.555664
2865.230993	0.089744	0.578685	1223.901855
2865.231895	0.089762	0.578685	1304.867187
2865.232796	0.089747	0.578685	1385.729492
2865.233680	0.089780	0.578685	1465.095215
2865.234607	0.089817	0.578685	1548.355469
2865.235519	0.089696	0.578685	1630.158203
2865.236415	0.089744	0.578685	1710.568481
2865.237344	0.089740	0.578685	1793.936890
2865.238245	0.089791	0.578685	1874.838867
2866.224847	1.072339	0.629994	469.684418
2866.225747	0.658846	0.629994	1062.646240
2866.226639	0.092930	0.629994	1145.539551
2866.227585	0.089626	0.629994	1230.326172
2866.228496	0.089659	0.629994	1312.005859
2866.229403	0.089729	0.629994	1393.390015
2866.230293	0.089766	0.629994	1473.281372
2866.231235	0.089810	0.629994	1557.881958
2866.232140	0.089656	0.629994	1639.020386
2866.233036	0.089645	0.629994	1719.342041
2866.233971	0.089729	0.629994	1803.238647
2866.234873	0.089791	0.629994	1884.230347
2867.262920	1.063945	0.575318	460.688324
2867.263861	0.631194	0.575318	1054.641724
2867.264769	0.091875	0.575318	1138.064209
2867.265669	0.089572	0.575318	1218.678589
2867.266554	0.089652	0.575318	1298.020752
2867.267514	0.089707	0.575318	1384.139526
2867.268407	0.089692	0.575318	1464.234863
2867.269309	0.089641	0.575318	1545.091187
2867.270202	0.089707	0.575318	1625.199585
2867.271141	0.089784	0.575318	1709.506714
2867.272045	0.089725	0.575318	1790.618408
2867.272942	0.089696	0.575318	1871.075806
2868.260618	1.146028	0.618268	573.013916
2868.261547	0.510341	0.618268	1047.120361
2868.262450	0.090974	0.618268	1129.270020
2868.263339	0.089678	0.618268	1208.993530
2868.264292	0.089755	0.618268	1294.529663
2868.265194	0.089681	0.618268	1375.422241
2868.266097	0.089707	0.618268	1456.427734
2868.267031	0.089773	0.618268	1540.275635
2868.267931	0.089780	0.618268	1621.077881
2868.268836	0.089681	0.618268	1702.239502
2868.269729	0.089722	0.618268	1782.360962
2868.270669	0.089766	0.618268	1866.740601
2869.299915	1.080491	0.592768	475.415924
2869.300908	0.512490	0.592768	984.318726
2869.301820	0.090886	0.592768	1067.207031
2869.302721	0.089630	0.592768	1147.963745
2869.303646	0.089700	0.592768	1230.936035
2869.304541	0.089802	0.592768	1311.309082
2869.305442	0.089722	0.592768	1392.148315
2869.306332	0.089758	0.592768	1472.033203
2869.307261	0.089788	0.592768	1555.445923
2869.308159	0.089711	0.592768	1636.006104
2869.309061	0.089788	0.592768	1716.994507
2869.309951	0.089703	0.592768	1796.830566
2870.298325	1.080626	0.611214	481.959320
2870.299224	0.644722	0.611214	1061.564087
2870.300168	0.092776	0.611214	1149.144531
2870.301076	0.089799	0.611214	1230.681641
2870.301977	0.089703	0.611214	1311.504395
2870.302868	0.089777	0.611214	1391.495361
2870.303817	0.089788	0.611214	1476.703735
2870.304717	0.089795	0.611214	1557.519165
2870.305616	0.089777	0.611214	1638.228394
2870.306499	0.089769	0.611214	1717.494629
2870.307442	0.089843	0.611214	1802.216187
2870.308351	0.089762	0.611214	1883.809814
2871.334642	1.124304	0.604954	532.920166
2871.335571	0.552264	0.604954	1045.973877
2871.336459	0.091549	0.604954	1127.269409
2871.337391	0.089692	0.604954	1210.862671
2871.338297	0.089722	0.604954	1292.150513
2871.339197	0.089810	0.604954	1372.979126
2871.340086	0.089729	0.604954	1452.748169
2871.341023	0.089850	0.604954	1536.937500
2871.341915	0.089696	0.604954	1616.946411
2871.342808	0.089799	0.604954	1697.136597
2871.343723	0.089733	0.604954	1779.241943
2871.344645	0.089780	0.604954	1862.019409
2872.336837	1.063323	0.611125	458.292053
2872.337794	0.593639	0.611125	1026.404541
2872.338704	0.091622	0.611125	1109.780884
2872.339630	0.089670	0.611125	1192.815674
2872.340517	0.089718	0.611125	1272.395508
2872.341476	0.089700	0.611125	1358.417480
2872.342369	0.089725	0.611125	1438.542236
2872.343258	0.089740	0.611125	1518.321045
2872.344194	0.089795	0.611125	1602.369141
2872.345094	0.089755	0.611125	1683.148315
2872.346010	0.089733	0.611125	1765.343384
2872.346902	0.089755	0.611125	1845.404541
2873.369046	1.081110	0.609719	476.769348
2873.370000	0.585040	0.609719	1034.897705
2873.370908	0.091490	0.609719	1117.971069
2873.371807	0.089656	0.609719	1198.571655
2873.372694	0.089777	0.609719	1278.203491
2873.373631	0.089828	0.609719	1362.372192
2873.374524	0.089769	0.609719	1442.536133
2873.375430	0.089755	0.609719	1523.853882
2873.376323	0.089832	0.609719	1604.073486
2873.377274	0.089806	0.609719	1689.478882
2873.378184	0.089795	0.609719	1771.192261
2873.379084	0.089736	0.609719	1851.954956
2874.373375	1.131570	0.613587	552.206055
2874.374305	0.530515	0.613587	1045.585205
2874.375208	0.091219	0.613587	1127.956421
2874.376095	0.089659	0.613587	1207.484375
2874.377045	0.089824	0.613587	1292.817383
2874.377958	0.089769	0.613587	1374.776733
2874.378852	0.089777	0.613587	1455.036987
2874.379789	0.089769	0.613587	1539.150757
2874.380699	0.089813	0.613587	1620.880859
2874.381599	0.089740	0.613587	1701.646851
2874.382491	0.089733	0.613587	1781.688354
2874.383424	0.089843	0.613587	1865.511475
2875.402991	1.086497	0.609473	517.172363
2875.403931	0.538997	0.609473	1023.829102
2875.404832	0.091274	0.609473	1106.067383
2875.405723	0.089722	0.609473	1186.009399
2875.406668	0.089810	0.609473	1270.879395
2875.407566	0.089835	0.609473	1351.551392
2875.408466	0.089744	0.609473	1432.320679
2875.409353	0.089766	0.609473	1511.942749
2875.410280	0.089861	0.609473	1595.243774
2875.411192	0.089835	0.609473	1677.173462
2875.412089	0.089850	0.609473	1757.768799
2875.413025	0.089788	0.609473	1841.809937
2876.409292	1.084779	0.613365	478.387543
2876.410280	0.516226	0.613365	988.418457
2876.411192	0.090912	0.613365	1071.330078
2876.412085	0.089725	0.613365	1151.454834
2876.413009	0.089780	0.613365	1234.411865
2876.413909	0.089769	0.613365	1315.204224
2876.414808	0.089736	0.613365	1395.877197
2876.415697	0.089780	0.613365	1475.691895
2876.416644	0.089799	0.613365	1560.731201
2876.417531	0.089810	0.613365	1640.392334
2876.418436	0.089725	0.613365	1721.593750
2876.419358	0.089751	0.613365	1804.344116
2877.437405	1.093828	0.609337	491.128815
2877.438311	0.624877	0.609337	1057.267090
2877.439201	0.092472	0.609337	1139.567139
2877.440164	0.089773	0.609337	1226.018433
2877.441073	0.089773	0.609337	1307.622070
2877.441962	0.089762	0.609337	1387.420410
2877.442894	0.089817	0.609337	1471.129761
2877.443799	0.089791	0.609337	1552.390869
2877.444701	0.089758	0.609337	1633.352905
2877.445594	0.089740	0.609337	1713.490723
2877.446552	0.089905	0.609337	1799.619507
2877.447446	0.089854	0.609337	1879.948608
2878.443739	1.085240	0.617164	482.932007
2878.444646	0.635142	0.617164	1059.005371
2878.445534	0.092651	0.617164	1141.279785
2878.446493	0.089758	0.617164	1227.358032
2878.447402	0.089700	0.617164	1308.895020
2878.448295	0.089784	0.617164	1389.072021
2878.449207	0.089780	0.617164	1470.951660
2878.450132	0.089850	0.617164	1554.062744
2878.451042	0.089769	0.617164	1635.752808
2878.451936	0.089857	0.617164	1716.085083
2878.452868	0.089854	0.617164	1799.828613
2878.453764	0.089810	0.617164	1880.297974
2879.471079	1.102416	0.614457	508.213684
2879.471980	0.619402	0.614457	1066.294800
2879.472922	0.091560	0.614457	1152.544434
2879.473826	0.089659	0.614457	1233.596558
2879.474722	0.089700	0.614457	1313.967529
2879.475613	0.089692	0.614457	1393.883423
2879.476553	0.089736	0.614457	1478.235596
2879.477464	0.089747	0.614457	1559.995361
2879.478361	0.089667	0.614457	1640.426392
2879.479296	0.089744	0.614457	1724.336670
2879.480196	0.089802	0.614457	1805.158691
2879.481100	0.089707	0.614457	1886.253906
2880.479246	1.105814	0.617212	559.541992
2880.480162	0.540406	0.617212	1054.554321
2880.481059	0.091417	0.617212	1136.555542
2880.481942	0.089714	0.617212	1215.773315
2880.482882	0.089839	0.617212	1300.221802
2880.483784	0.089740	0.617212	1381.167236
2880.484688	0.089703	0.617212	1462.259033
2880.485574	0.089722	0.617212	1541.752441
2880.486531	0.089810	0.617212	1627.700195
2880.487436	0.089667	0.617212	1708.848633
2880.488330	0.089751	0.617212	1789.086060
2880.489267	0.089747	0.617212	1873.179321
2881.506040	1.131870	0.610505	546.693298
2881.506972	0.536697	0.610505	1046.894653
2881.507879	0.091099	0.610505	1129.521118
2881.508803	0.089656	0.610505	1212.363037
2881.509693	0.089593	0.610505	1292.101196
2881.510644	0.089626	0.610505	1377.335937
2881.511534	0.089641	0.610505	1457.116577
2881.512423	0.089663	0.610505	1536.827026
2881.513355	0.089777	0.610505	1620.498779
2881.514258	0.089733	0.610505	1701.527344
2881.515171	0.089733	0.610505	1783.453247
2881.516069	0.089703	0.610505	1864.006836
2882.514910	1.094084	0.626038	499.996552
2882.515805	0.628176	0.626038	1062.214355
2882.516755	0.091776	0.626038	1149.401611
2882.517661	0.089648	0.626038	1230.623047
2882.518577	0.089725	0.626038	1312.811523
2882.519477	0.089758	0.626038	1393.593994
2882.520423	0.089755	0.626038	1478.501831
2882.521328	0.089729	0.626038	1559.706543
2882.522213	0.089729	0.626038	1639.116699
2882.523154	0.089791	0.626038	1723.610229
2882.524061	0.089714	0.626038	1804.981201
2882.524961	0.089733	0.626038	1885.740601
2883.540454	1.094242	0.611415	497.880035
2883.541351	0.628462	0.611415	1061.610352
2883.542295	0.092377	0.611415	1148.813965
2883.543190	0.089773	0.611415	1229.160767
2883.544091	0.089766	0.611415	1310.039551
2883.544981	0.089755	0.611415	1389.921143
2883.545914	0.089916	0.611415	1473.812500
2883.546819	0.089766	0.611415	1555.050415
2883.547721	0.089755	0.611415	1636.009155
2883.548608	0.089725	0.611415	1715.595581
2883.549560	0.089843	0.611415	1801.125732
2883.550459	0.089718	0.611415	1881.782227
2884.550863	1.070632	0.629551	472.148865
2884.551758	0.647260	0.629551	1051.446167
2884.552722	0.091637	0.629551	1139.784180
2884.553627	0.089637	0.629551	1220.906128
2884.554518	0.089744	0.629551	1300.867676
2884.555443	0.089780	0.629551	1383.914429
2884.556350	0.089802	0.629551	1465.365112
2884.557255	0.089659	0.629551	1546.506836
2884.558147	0.089678	0.629551	1626.499390
2884.559088	0.089824	0.629551	1711.023926
2884.559991	0.089711	0.629551	1792.032715
2884.560897	0.089736	0.629551	1873.333862
2885.576654	1.076407	0.617276	474.695679
2885.577565	0.637167	0.617276	1055.154541
2885.578463	0.092684	0.617276	1138.385010
2885.579417	0.089762	0.617276	1224.017944
2885.580322	0.089711	0.617276	1305.206055
2885.581220	0.089744	0.617276	1385.795898
2885.582154	0.089821	0.617276	1469.688354
2885.583065	0.089839	0.617276	1551.531494
2885.583967	0.089769	0.617276	1632.503418
2885.584854	0.089729	0.617276	1712.093018
2885.585791	0.089824	0.617276	1796.258301
2885.586695	0.089828	0.617276	1877.462646
2886.585586	1.114581	0.631182	521.624023
2886.586508	0.581576	0.631182	1057.837036
2886.587410	0.091688	0.631182	1140.539795
2886.588296	0.089700	0.631182	1220.013672
2886.589223	0.089758	0.631182	1303.219604
2886.590133	0.089751	0.631182	1384.892944
2886.591032	0.089777	0.631182	1465.602173
2886.591964	0.089795	0.631182	1549.291016
2886.592871	0.089755	0.631182	1630.698486
2886.593774	0.089736	0.631182	1711.730347
2886.594662	0.089758	0.631182	1791.435669
2886.595609	0.089773	0.631182	1876.450684
2887.612892	1.089177	0.616769	490.129761
2887.613804	0.621017	0.616769	1056.497070
2887.614694	0.092461	0.616769	1138.787354
2887.615631	0.089762	0.616769	1222.894287
2887.616547	0.089747	0.616769	1305.102783
2887.617443	0.089784	0.616769	1385.549194
2887.618378	0.089747	0.616769	1469.462891
2887.619291	0.089875	0.616769	1551.519165
2887.620199	0.089689	0.616769	1632.956543
2887.621102	0.089711	0.616769	1713.965332
2887.622045	0.089791	0.616769	1798.638428
2887.622946	0.089777	0.616769	1879.527100
2888.620001	1.093356	0.631077	500.756958
2888.620898	0.625660	0.631077	1061.974365
2888.621838	0.092157	0.631077	1148.601929
2888.622748	0.089722	0.631077	1230.248657
2888.623654	0.089769	0.631077	1311.579590
2888.624545	0.089685	0.631077	1391.489014
2888.625500	0.089832	0.631077	1477.278076
2888.626405	0.089736	0.631077	1558.489502
2888.627302	0.089747	0.631077	1638.992798
2888.628220	0.089762	0.631077	1721.394287
2888.629128	0.089718	0.631077	1802.858276
2888.630034	0.089667	0.631077	1884.096313
2889.649112	1.087163	0.621172	479.438934
2889.650043	0.606716	0.621172	1044.291870
2889.650947	0.091908	0.621172	1127.376709
2889.651842	0.089740	0.621172	1207.693970
2889.652786	0.089777	0.621172	1292.443115
2889.653687	0.089711	0.621172	1373.272461
2889.654579	0.089769	0.621172	1453.346680
2889.655524	0.089707	0.621172	1538.119873
2889.656435	0.089692	0.621172	1619.829590
2889.657329	0.089758	0.621172	1700.073486
2889.658219	0.089725	0.621172	1779.929077
2889.659154	0.089872	0.621172	1863.959229
2890.654409	1.064121	0.631222	461.828583
2890.655353	0.624697	0.631222	1051.542847
2890.656270	0.091637	0.631222	1135.573975
2890.657175	0.089722	0.631222	1216.772095
2890.658065	0.089766	0.631222	1296.663452
2890.659001	0.089806	0.631222	1380.721802
2890.659907	0.089685	0.631222	1461.976440
2890.660804	0.089824	0.631222	1542.548828
2890.661691	0.089802	0.631222	1622.203369
2890.662620	0.089718	0.631222	1705.551392
2890.663523	0.089747	0.631222	1786.593262
2890.664415	0.089725	0.631222	1866.628296
2891.685600	1.090803	0.622542	495.224670
2891.686518	0.613293	0.622542	1058.228027
2891.687402	0.092362	0.622542	1139.876099
2891.688355	0.089821	0.622542	1225.475098
2891.689253	0.089791	0.622542	1306.107666
2891.690151	0.089780	0.622542	1386.730347
2891.691038	0.089835	0.622542	1466.414185
2891.691965	0.089758	0.622542	1549.620117
2891.692870	0.089791	0.622542	1630.881226
2891.693769	0.089780	0.622542	1711.593750
2891.694695	0.089788	0.622542	1794.737061
2891.695606	0.089835	0.622542	1876.576904
2892.688864	1.091071	0.625434	490.981750
2892.689780	0.614209	0.625434	1053.597168
2892.690670	0.092307	0.625434	1135.750488
2892.691632	0.089733	0.625434	1222.073364
2892.692531	0.089795	0.625434	1302.798950
2892.693428	0.089773	0.625434	1383.325317
2892.694320	0.089744	0.625434	1463.376709
2892.695272	0.089843	0.625434	1548.906738
2892.696189	0.089824	0.625434	1631.275513
2892.697087	0.089777	0.625434	1711.894897
2892.698017	0.089795	0.625434	1795.404175
2892.698928	0.089861	0.625434	1877.267334
2893.721829	1.094725	0.617329	500.289490
2893.722750	0.593405	0.617329	1046.815063
2893.723652	0.091787	0.617329	1129.607056
2893.724582	0.089817	0.617329	1213.136719
2893.725493	0.089791	0.617329	1294.936523
2893.726398	0.089784	0.617329	1376.190918
2893.727287	0.089755	0.617329	1455.982788
2893.728235	0.089857	0.617329	1541.167358
2893.729128	0.089806	0.617329	1621.364014
2893.730034	0.089806	0.617329	1702.728149
2893.730922	0.089821	0.617329	1782.488770
2893.731846	0.089912	0.617329	1865.567505
